#index kx_value ky_value E0(k) Overlap_bottom Overlap_top E1(k) Overlap_bottom Overlap_top  E2(k) .....
0  0.0579087  -0.0334336   -376.75  0.235081  0.264767  0.264931  0.235221  -376.75  0.235221  0.264931  0.264767  0.235081  -356.972  0.255621  0.244379  0.244379  0.255621  -317.684  0.244815  0.255181  0.255185  0.24482  -317.684  0.24482  0.255185  0.255181  0.244815  -313.686  0.257723  0.242277  0.242277  0.257723  -273.13  0.237989  0.262011  0.262011  0.237989  -271.302  0.24347  0.25653  0.25653  0.24347  -271.302  0.24347  0.25653  0.25653  0.24347  -256.287  0.262924  0.237078  0.237077  0.262921  -256.287  0.262921  0.237077  0.237078  0.262924  -254.797  0.26853  0.23147  0.23147  0.26853  -227.661  0.472132  0.027868  0.027868  0.472132  -227.473  0.472208  0.0276387  0.0276556  0.472498  -227.473  0.472498  0.0276556  0.0276387  0.472208  -176.449  0.471667  0.0283335  0.0283335  0.471667  -176.449  0.471683  0.028317  0.028317  0.471683  -176.449  0.471683  0.028317  0.028317  0.471683  -170.362  0.240539  0.259461  0.259461  0.240539  -170.328  0.240801  0.259199  0.259199  0.240801  -170.328  0.240801  0.259199  0.259199  0.240801  -154.428  0.262669  0.237331  0.237331  0.262669  -154.428  0.262669  0.237331  0.237331  0.262669  -154.418  0.262804  0.237196  0.237196  0.262804  -125.392  0.472205  0.027795  0.027795  0.472205  -125.391  0.472199  0.0277991  0.0277993  0.472202  -125.391  0.472202  0.0277993  0.0277991  0.472199  -125.278  0.47214  0.0278668  0.027866  0.472127  -125.278  0.472127  0.027866  0.0278668  0.47214  -125.277  0.472132  0.0278676  0.0278676  0.472132  -113.204  0.24643  0.25357  0.25357  0.24643  -113.204  0.24643  0.25357  0.25357  0.24643  -113.193  0.246495  0.253505  0.253505  0.246495  -59.9493  0.251815  0.248185  0.248185  0.251815  -59.9231  0.252015  0.247985  0.247985  0.252015  -59.9231  0.252015  0.247985  0.247985  0.252015  -57.9806  0.258205  0.241795  0.241795  0.258205  -57.9806  0.258205  0.241795  0.241795  0.258205  -57.9578  0.258373  0.241627  0.241627  0.258373  -23.1832  0.472204  0.0277955  0.0277955  0.472204  -23.1832  0.472204  0.0277958  0.0277958  0.472204  -23.1832  0.472204  0.0277958  0.0277958  0.472204  -23.0625  0.472336  0.0276645  0.0276645  0.472335  -23.0625  0.472335  0.0276645  0.0276645  0.472336  -23.0624  0.472335  0.0276648  0.0276648  0.472335  -7.29013  0.264875  0.235316  0.235144  0.264666  -7.29013  0.264666  0.235144  0.235316  0.264875  13.1644  0.246379  0.253621  0.253621  0.246379  27.9804  0.472277  0.0277234  0.0277234  0.472277  27.9804  0.472277  0.0277234  0.0277234  0.472277  27.9804  0.472277  0.0277228  0.0277228  0.472277  39.8494  0.245952  0.254048  0.254048  0.245952  39.8494  0.245952  0.254048  0.254048  0.245952  39.8499  0.245938  0.254062  0.254062  0.245938  52.0087  0.255626  0.244381  0.244374  0.255619  52.0087  0.255619  0.244374  0.244381  0.255626  57.6167  0.243097  0.256903  0.256903  0.243097  79.0766  0.472157  0.0278432  0.0278432  0.472157  79.0774  0.472174  0.0278261  0.0278261  0.472174  79.0774  0.472174  0.0278261  0.0278261  0.472174  79.0787  0.472198  0.0278022  0.0278022  0.472198  79.0787  0.472198  0.0278022  0.0278022  0.472198  79.0793  0.472209  0.0277915  0.0277915  0.472209  92.9427  0.251911  0.248089  0.248089  0.251911  92.9564  0.251619  0.248381  0.248381  0.251619  92.9564  0.251619  0.248381  0.248381  0.251619  94.8278  0.257932  0.242068  0.242068  0.257932  94.8278  0.257932  0.242068  0.242068  0.257932  94.8634  0.257556  0.242444  0.242444  0.257556  96.1758  0.26156  0.23844  0.23844  0.26156  98.4088  0.256374  0.243626  0.243626  0.256374  98.4088  0.256374  0.243626  0.243626  0.256374  115.008  0.237764  0.262236  0.262236  0.237764  115.008  0.237764  0.262236  0.262236  0.237764  118.345  0.23038  0.26962  0.26962  0.23038  135.893  0.239418  0.260582  0.260582  0.239418  135.894  0.239419  0.260581  0.260581  0.239419  135.894  0.239419  0.260581  0.260581  0.239419  151.239  0.261409  0.238591  0.238591  0.261409  151.239  0.261409  0.238591  0.238591  0.261409  151.24  0.261394  0.238606  0.238606  0.261394  181.289  0.472228  0.0277715  0.0277715  0.472228  181.289  0.472229  0.0277708  0.0277708  0.472229  181.289  0.472229  0.0277708  0.0277708  0.472229  199.336  0.260388  0.239612  0.239612  0.260388  199.468  0.25997  0.24003  0.24003  0.25997  199.468  0.25997  0.24003  0.24003  0.25997  217.574  0.238204  0.261796  0.261796  0.238204  217.574  0.238204  0.261796  0.261796  0.238204  217.759  0.237672  0.262328  0.262328  0.237672  232.394  0.472184  0.0278158  0.0278158  0.472184  232.394  0.472184  0.0278158  0.0278158  0.472184  232.394  0.472185  0.0278154  0.0278154  0.472185  232.396  0.47213  0.0278697  0.0278697  0.47213  232.396  0.47213  0.0278697  0.0278697  0.47213  232.396  0.472128  0.0278717  0.0278717  0.472128  246.175  0.253582  0.246418  0.246418  0.253582  246.175  0.253582  0.246418  0.246418  0.253582  246.186  0.25351  0.24649  0.24649  0.25351  246.205  0.252759  0.247241  0.247241  0.252759  246.216  0.252696  0.247304  0.247304  0.252696  246.216  0.252696  0.247304  0.247304  0.252696  257.399  0.254022  0.245978  0.245978  0.254022  257.399  0.254022  0.245978  0.245978  0.254022  257.409  0.253978  0.246022  0.246022  0.253978  283.44  0.472195  0.0278048  0.0278048  0.472195  283.44  0.472195  0.0278048  0.0278048  0.472195  283.44  0.472195  0.0278048  0.0278048  0.472195  283.568  0.47231  0.02769  0.02769  0.47231  283.568  0.47231  0.02769  0.02769  0.47231  283.568  0.47231  0.02769  0.02769  0.47231  311.217  0.248927  0.251073  0.251073  0.248927  311.36  0.248518  0.251482  0.251482  0.248518  311.36  0.248518  0.251482  0.251482  0.248518  314.678  0.241875  0.258125  0.258125  0.241875  314.678  0.241875  0.258125  0.258125  0.241875  314.822  0.241479  0.258521  0.258521  0.241479  340.121  0.239303  0.260697  0.260697  0.239303  340.121  0.239302  0.260698  0.260698  0.239302  340.121  0.239301  0.260699  0.260699  0.239301  354.476  0.260601  0.239399  0.239399  0.260601  354.477  0.260605  0.239395  0.239395  0.260605  354.478  0.260604  0.239396  0.239396  0.260604  385.708  0.472272  0.0277284  0.0277284  0.472272  385.708  0.472272  0.0277284  0.0277284  0.472272  385.708  0.472272  0.0277281  0.0277281  0.472272  385.708  0.472271  0.0277287  0.0277287  0.472271  385.708  0.472272  0.0277284  0.0277284  0.472272  385.708  0.472272  0.0277284  0.0277284  0.472272  411.216  0.256212  0.243788  0.243788  0.256212  411.216  0.256212  0.243788  0.243788  0.256212  411.217  0.256211  0.243789  0.243789  0.256211  447.052  0.250151  0.249849  0.249849  0.250151  447.052  0.250152  0.249848  0.249848  0.250152  447.067  0.250262  0.249738  0.249738  0.250262  447.696  0.246978  0.253022  0.253022  0.246978  447.77  0.247042  0.252958  0.252958  0.247042  447.77  0.24704  0.25296  0.25296  0.24704  447.901  0.247505  0.252495  0.252495  0.247505  447.902  0.247508  0.252492  0.252492  0.247508  447.96  0.24746  0.25254  0.25254  0.24746  467.892  0.251411  0.248589  0.248589  0.251411  467.895  0.2514  0.2486  0.2486  0.2514  467.896  0.251401  0.248599  0.248599  0.251401  470.799  0.245875  0.254125  0.254125  0.245875  470.799  0.245876  0.254124  0.254124  0.245876  470.803  0.245864  0.254136  0.254136  0.245864  487.858  0.472196  0.0278037  0.0278037  0.472196  487.858  0.472196  0.0278037  0.0278037  0.472196  487.858  0.472196  0.0278037  0.0278037  0.472196  487.982  0.472343  0.0276566  0.0276566  0.472343  487.982  0.472343  0.0276566  0.0276566  0.472343  487.982  0.472343  0.0276566  0.0276566  0.472343  495.573  0.254044  0.245956  0.245956  0.254044  495.574  0.254043  0.245957  0.245957  0.254043  495.574  0.254043  0.245957  0.245957  0.254043  500.014  0.251294  0.248706  0.248706  0.251294  500.015  0.251297  0.248703  0.248703  0.251297  500.015  0.251295  0.248705  0.248705  0.251295  511.572  0.257837  0.242163  0.242163  0.257837  511.573  0.257837  0.242163  0.242163  0.257837  511.573  0.257837  0.242163  0.242163  0.257837  527.814  0.244517  0.255483  0.255483  0.244517  527.814  0.244518  0.255482  0.255482  0.244518  527.815  0.244517  0.255483  0.255483  0.244517  574.4  0.0278753  0.472125  0.472125  0.0278753  577.635  0.0276469  0.472346  0.47236  0.0276477  577.635  0.0276477  0.47236  0.472346  0.0276469  590.122  0.472256  0.0277442  0.0277442  0.472256  590.122  0.472256  0.0277442  0.0277442  0.472256  590.122  0.472256  0.0277442  0.0277442  0.472256  590.122  0.472256  0.0277439  0.0277439  0.472256  590.122  0.472256  0.0277439  0.0277439  0.472256  590.122  0.472256  0.0277439  0.0277439  0.472256  590.127  0.472281  0.0277191  0.0277191  0.472281  590.127  0.472281  0.0277191  0.0277191  0.472281  590.127  0.472281  0.0277191  0.0277191  0.472281  615.979  0.245873  0.254127  0.254127  0.245873  615.983  0.245859  0.254141  0.254141  0.245859  615.983  0.245859  0.254141  0.254141  0.245859  616.193  0.245305  0.254695  0.254695  0.245305  616.193  0.245305  0.254695  0.254695  0.245305  616.198  0.245291  0.254709  0.254709  0.245291  627.694  0.0277188  0.472282  0.472281  0.0277188  627.694  0.0277188  0.472281  0.472282  0.0277188  627.75  0.0277111  0.472289  0.472289  0.0277111  641.23  0.47223  0.0277699  0.0277699  0.47223  641.23  0.47223  0.0277699  0.0277699  0.47223  641.23  0.47223  0.0277699  0.0277699  0.47223  641.23  0.47223  0.0277696  0.0277696  0.47223  641.23  0.47223  0.0277696  0.0277696  0.47223  641.23  0.47223  0.0277696  0.0277696  0.47223  657.675  0.253602  0.246398  0.246398  0.253602  657.675  0.253603  0.246397  0.246397  0.253603  657.675  0.253603  0.246397  0.246397  0.253603  657.682  0.253596  0.246404  0.246404  0.253596  657.682  0.253597  0.246403  0.246403  0.253597  657.682  0.253597  0.246403  0.246403  0.253597  677.776  0.0277871  0.472213  0.472213  0.0277871  677.776  0.0277871  0.472213  0.472213  0.0277871  677.805  0.0277832  0.472217  0.472217  0.0277832  679.875  0.0276432  0.472357  0.472357  0.0276432  679.905  0.0276391  0.472361  0.472361  0.0276391  679.905  0.0276391  0.472361  0.472361  0.0276391  700.606  0.245724  0.254276  0.254276  0.245724  700.922  0.246115  0.253885  0.253885  0.246115  700.922  0.246115  0.253885  0.253885  0.246115  708.255  0.260266  0.239734  0.239734  0.260266  708.268  0.260288  0.239712  0.239712  0.260288  708.268  0.260288  0.239712  0.239712  0.260288  727.774  0.236748  0.263252  0.263252  0.236748  727.802  0.236794  0.263206  0.263206  0.236794  727.802  0.236794  0.263206  0.263206  0.236794  758.229  0.251714  0.248286  0.248286  0.251714  758.663  0.252445  0.247555  0.247555  0.252445  758.663  0.252445  0.247555  0.247555  0.252445  761.998  0.259219  0.240781  0.240781  0.259219  762.516  0.260324  0.239676  0.239676  0.260324  762.516  0.260324  0.239676  0.239676  0.260324  779.98  0.0277881  0.472212  0.472212  0.0277881  779.981  0.0277881  0.472212  0.472212  0.0277881  779.981  0.027788  0.472212  0.472212  0.027788  782.094  0.0276423  0.472358  0.472358  0.0276423  782.094  0.0276423  0.472358  0.472358  0.0276423  782.094  0.0276423  0.472358  0.472358  0.0276423  794.539  0.472262  0.027738  0.027738  0.472262  794.539  0.472262  0.027738  0.027738  0.472262  794.539  0.472262  0.0277377  0.0277377  0.472262  794.539  0.472262  0.0277378  0.0277378  0.472262  794.539  0.472263  0.0277374  0.0277374  0.472263  794.539  0.472263  0.0277374  0.0277374  0.472263  816.241  0.253772  0.246228  0.246228  0.253772  816.268  0.253813  0.246187  0.246187  0.253813  816.268  0.253813  0.246187  0.246187  0.253813  821.814  0.246334  0.253666  0.253666  0.246334  821.82  0.246348  0.253652  0.253652  0.246348  821.821  0.246346  0.253654  0.253654  0.246346  822.081  0.245822  0.254178  0.254178  0.245822  822.088  0.245843  0.254157  0.254157  0.245843  822.088  0.245841  0.254159  0.254159  0.245841  832.106  0.0277205  0.472279  0.472279  0.0277205  832.106  0.0277205  0.472279  0.472279  0.0277205  832.106  0.0277205  0.472279  0.472279  0.0277205  845.647  0.472283  0.0277175  0.0277175  0.472283  845.647  0.472284  0.0277162  0.0277162  0.472284  845.647  0.472284  0.0277162  0.0277162  0.472284  848.842  0.240672  0.259328  0.259328  0.240672  849.023  0.240942  0.259058  0.259058  0.240942  849.023  0.240942  0.259058  0.259058  0.240942  861.87  0.25669  0.24331  0.24331  0.25669  862.243  0.257004  0.242996  0.242996  0.257004  862.243  0.257004  0.242996  0.242996  0.257004  873.463  0.246946  0.253054  0.253054  0.246946  873.474  0.246956  0.253044  0.253044  0.246956  873.474  0.246956  0.253044  0.253044  0.246956  882.036  0.247356  0.252644  0.252644  0.247356  882.247  0.24805  0.25195  0.25195  0.24805  882.247  0.24805  0.25195  0.25195  0.24805  883.25  0.0277248  0.472275  0.472275  0.0277248  883.25  0.0277277  0.472272  0.472272  0.0277277  883.25  0.0277264  0.472274  0.472274  0.0277264  883.29  0.0277093  0.472291  0.472291  0.0277093  883.29  0.0277092  0.472291  0.472291  0.0277092  883.29  0.0277092  0.472291  0.472291  0.0277092  896.747  0.472234  0.0277663  0.0277663  0.472234  896.747  0.472234  0.0277663  0.0277663  0.472234  896.748  0.472241  0.0277588  0.0277588  0.472241  896.748  0.472241  0.0277588  0.0277588  0.472241  896.748  0.472241  0.0277589  0.0277589  0.472241  896.748  0.472241  0.0277589  0.0277589  0.472241  911.942  0.253197  0.246803  0.246803  0.253197  911.943  0.253198  0.246802  0.246802  0.253198  912.407  0.254071  0.245929  0.245929  0.254071  912.407  0.254071  0.245929  0.245929  0.254071  912.408  0.254072  0.245928  0.245928  0.254072  912.408  0.254072  0.245928  0.245928  0.254072  962.738  0.253438  0.246562  0.246562  0.253438  962.82  0.253846  0.246154  0.246154  0.253846  963.185  0.254262  0.245738  0.245738  0.254262  963.185  0.254262  0.245738  0.245738  0.254262  963.269  0.254694  0.245306  0.245306  0.254694  963.269  0.254694  0.245306  0.245306  0.254694  985.417  0.0277207  0.472279  0.472279  0.0277207  985.417  0.0277207  0.472279  0.472279  0.0277207  985.417  0.0277207  0.472279  0.472279  0.0277207  998.897  0.472207  0.0277935  0.0277935  0.472207  998.897  0.472207  0.0277927  0.0277927  0.472207  998.897  0.472207  0.0277927  0.0277927  0.472207  999.021  0.472352  0.0276483  0.0276483  0.472352  999.022  0.472353  0.0276465  0.0276465  0.472353  999.022  0.472353  0.0276465  0.0276465  0.472353  1026.59  0.246811  0.253189  0.253189  0.246811  1026.59  0.246822  0.253178  0.253178  0.246822  1026.59  0.246822  0.253178  0.253178  0.246822  1026.6  0.246795  0.253205  0.253205  0.246795  1026.6  0.246807  0.253193  0.253193  0.246807  1026.6  0.246807  0.253193  0.253193  0.246807  1036.56  0.0277174  0.472283  0.472283  0.0277174  1036.56  0.0277173  0.472283  0.472283  0.0277173  1036.56  0.0277173  0.472283  0.472283  0.0277173  1036.6  0.0277113  0.472289  0.472289  0.0277113  1036.6  0.0277113  0.472289  0.472289  0.0277113  1036.6  0.0277113  0.472289  0.472289  0.0277113  1050.06  0.472259  0.0277413  0.0277413  0.472259  1050.06  0.472259  0.0277409  0.0277409  0.472259  1050.06  0.472261  0.0277393  0.0277393  0.472261  1050.06  0.472261  0.0277393  0.0277393  0.472261  1050.06  0.472261  0.0277389  0.0277389  0.472261  1050.06  0.472261  0.0277389  0.0277389  0.472261  1072.7  0.254248  0.245752  0.245752  0.254248  1073.92  0.254354  0.245646  0.245646  0.254354  1073.92  0.254354  0.245646  0.245646  0.254354  1086.6  0.0277898  0.47221  0.47221  0.0277898  1086.6  0.0277898  0.47221  0.47221  0.0277898  1086.6  0.0277898  0.47221  0.47221  0.0277898  1088.72  0.0276441  0.472356  0.472356  0.0276441  1088.72  0.0276441  0.472356  0.472356  0.0276441  1088.72  0.0276441  0.472356  0.472356  0.0276441  1101.17  0.472277  0.0277227  0.0277227  0.472277  1101.17  0.472277  0.0277227  0.0277227  0.472277  1101.17  0.472279  0.0277211  0.0277211  0.472279  1101.17  0.472279  0.0277211  0.0277211  0.472279  1101.17  0.472279  0.027721  0.027721  0.472279  1101.17  0.472279  0.027721  0.027721  0.472279  1124.63  0.24867  0.25133  0.25133  0.24867  1127.29  0.248246  0.251754  0.251754  0.248246  1127.29  0.248246  0.251754  0.251754  0.248246  1127.46  0.243614  0.256386  0.256386  0.243614  1130.55  0.240801  0.259199  0.259199  0.240801  1130.55  0.240801  0.259199  0.259199  0.240801  1160.05  0.239126  0.260874  0.260874  0.239126  1167.46  0.253637  0.246363  0.246363  0.253637  1167.46  0.253636  0.246364  0.246364  0.253636  1167.48  0.253693  0.246307  0.246307  0.253693  1167.48  0.253692  0.246308  0.246308  0.253692  1167.76  0.254281  0.245719  0.245719  0.254281  1167.76  0.254281  0.245719  0.245719  0.254281  1177.86  0.260228  0.239772  0.239772  0.260228  1189.88  0.0277179  0.472282  0.472282  0.0277179  1189.88  0.0277179  0.472282  0.472282  0.0277179  1189.88  0.027718  0.472282  0.472282  0.027718  1189.88  0.0277176  0.472282  0.472282  0.0277176  1189.88  0.0277176  0.472282  0.472282  0.0277176  1189.88  0.0277177  0.472282  0.472282  0.0277177  1220.08  0.260791  0.239209  0.239209  0.260791  1220.61  0.260618  0.239382  0.239382  0.260618  1220.61  0.260618  0.239382  0.239382  0.260618  1235.64  0.238561  0.261439  0.261439  0.238561  1238.06  0.237406  0.262594  0.262594  0.237406  1238.06  0.237406  0.262594  0.262594  0.237406  1265.53  0.252342  0.247658  0.247658  0.252342  1265.58  0.25265  0.24735  0.24735  0.25265  1281.81  0.246279  0.253721  0.253721  0.246279  1281.81  0.246279  0.253721  0.253721  0.246279  1281.81  0.246262  0.253738  0.253738  0.246262  1281.81  0.246262  0.253738  0.253738  0.246262  1285.7  0.247894  0.252106  0.252106  0.247894  1285.72  0.247968  0.252032  0.252032  0.247968  1291.02  0.0277952  0.472205  0.472205  0.0277952  1291.02  0.0277952  0.472205  0.472205  0.0277952  1291.02  0.0278247  0.472175  0.472175  0.0278247  1293.13  0.0276485  0.472352  0.472352  0.0276485  1293.13  0.0276485  0.472352  0.472352  0.0276485  1293.13  0.0276607  0.472339  0.472339  0.0276607  1305.52  0.472205  0.0277949  0.0277949  0.472205  1305.58  0.472248  0.0277518  0.0277518  0.472248  1305.58  0.472248  0.0277517  0.0277517  0.472248  1305.58  0.472251  0.0277486  0.0277486  0.472251  1305.58  0.472252  0.0277482  0.0277482  0.472252  1305.58  0.472247  0.0277532  0.0277532  0.472247  1305.58  0.472246  0.0277538  0.0277538  0.472246  1305.65  0.472351  0.0276492  0.0276492  0.472351  1319.01  0.244104  0.255896  0.255896  0.244104  1330.24  0.247453  0.252547  0.252547  0.247453  1330.56  0.247912  0.252088  0.252088  0.247912  1332.75  0.2462  0.2538  0.2538  0.2462  1332.75  0.2462  0.2538  0.2538  0.2462  1332.94  0.245613  0.254387  0.254387  0.245613  1332.94  0.245613  0.254387  0.254387  0.245613  1373.55  0.2505  0.2495  0.2495  0.2505  1376  0.257375  0.242625  0.242625  0.257375  1394.25  0.0277246  0.472275  0.472275  0.0277246  1394.25  0.0277246  0.472275  0.472275  0.0277246  1394.25  0.0277298  0.47227  0.47227  0.0277298  1394.3  0.0277202  0.47228  0.47228  0.0277202  1394.3  0.0277201  0.47228  0.47228  0.0277201  1394.3  0.0277201  0.47228  0.47228  0.0277201  1394.3  0.0277202  0.47228  0.47228  0.0277202  1394.3  0.0277201  0.47228  0.47228  0.0277201  1394.3  0.0277201  0.47228  0.47228  0.0277201  1407.79  0.472279  0.0277215  0.0277215  0.472279  1407.79  0.472279  0.0277214  0.0277214  0.472279  1445.39  0.0277222  0.472278  0.472278  0.0277222  1445.39  0.0277221  0.472278  0.472278  0.0277221  1445.39  0.0277221  0.472278  0.472278  0.0277221  1445.43  0.0277165  0.472283  0.472283  0.0277165  1445.43  0.0277165  0.472283  0.472283  0.0277165  1445.43  0.0277165  0.472283  0.472283  0.0277165  1458.89  0.472283  0.0277168  0.0277168  0.472283  1473.39  0.253468  0.246532  0.246532  0.253468  1473.39  0.253468  0.246532  0.246532  0.253468  1509.99  0.472201  0.0277991  0.0277991  0.472201  1509.99  0.472201  0.0277991  0.0277991  0.472201  1520.89  0.252246  0.247754  0.247754  0.252246  1520.89  0.252246  0.247754  0.247754  0.252246  1526.78  0.260852  0.239148  0.239148  0.260852  1536.8  0.245736  0.254264  0.254264  0.245736  1536.8  0.245736  0.254264  0.254264  0.245736  1537.76  0.246574  0.253426  0.253426  0.246574  1537.76  0.24657  0.25343  0.25343  0.24657  1541.62  0.248067  0.251933  0.251933  0.248067  1541.62  0.248067  0.251933  0.251933  0.248067  1542.88  0.238488  0.261512  0.261512  0.238488  1598.72  0.0277422  0.472258  0.472258  0.0277422  1598.72  0.0277422  0.472258  0.472258  0.0277422  1598.72  0.0277431  0.472257  0.472257  0.0277431  1598.72  0.0277431  0.472257  0.472257  0.0277431  1598.72  0.0277435  0.472257  0.472257  0.0277435  1598.72  0.0277435  0.472257  0.472257  0.0277435  1612.2  0.472265  0.0277347  0.0277347  0.472265  1612.2  0.472265  0.0277345  0.0277345  0.472265  1637.87  0.247177  0.252823  0.252823  0.247177  1638.02  0.246674  0.253326  0.253326  0.246674  1649.76  0.0277192  0.472281  0.472281  0.0277192  1649.76  0.0277192  0.472281  0.472281  0.0277192  1649.77  0.0277427  0.472257  0.472257  0.0277427  1663.31  0.472282  0.0277184  0.0277184  0.472282  1663.31  0.472282  0.027718  0.027718  0.472282  1676.4  0.244992  0.255008  0.255008  0.244992  1686.39  0.254572  0.245428  0.245428  0.254572  1700.91  0.0277139  0.472286  0.472286  0.0277139  1700.91  0.0277139  0.472286  0.472286  0.0277139  1700.92  0.0277478  0.472252  0.472252  0.0277478  1700.94  0.0277086  0.472291  0.472291  0.0277086  1700.94  0.0277086  0.472291  0.472291  0.0277086  1700.96  0.0277379  0.472262  0.472262  0.0277379  1730.21  0.250773  0.249227  0.249227  0.250773  1732.6  0.257856  0.242144  0.242144  0.257856  1739.39  0.249012  0.250988  0.250988  0.249012  1742.25  0.24237  0.25763  0.25763  0.24237  1802.05  0.0277872  0.472213  0.472213  0.0277872  1802.05  0.0277872  0.472213  0.472213  0.0277872  1802.06  0.0278185  0.472182  0.472182  0.0278185  1804.16  0.0276423  0.472358  0.472358  0.0276423  1804.16  0.0276423  0.472358  0.472358  0.0276423  1804.18  0.0276745  0.472326  0.472326  0.0276745  1816.62  0.472283  0.0277169  0.0277169  0.472283  1841.22  0.246049  0.253951  0.253951  0.246049  1841.22  0.246049  0.253951  0.253951  0.246049  1854.23  0.0277133  0.472287  0.472287  0.0277133  1854.23  0.0277133  0.472287  0.472287  0.0277133  1854.23  0.027713  0.472287  0.472287  0.027713  1854.23  0.027713  0.472287  0.472287  0.027713  1854.28  0.028541  0.471459  0.471459  0.028541  1854.28  0.028541  0.471459  0.471459  0.028541  1867.72  0.472245  0.0277549  0.0277549  0.472245  1867.72  0.472245  0.0277548  0.0277548  0.472245  1874.14  0.23889  0.26111  0.26111  0.23889  1885.45  0.253434  0.246566  0.246566  0.253434  1885.45  0.253434  0.246566  0.246566  0.253434  1891.39  0.260605  0.239395  0.239395  0.260605  1893.43  0.245392  0.254608  0.254608  0.245392  1893.48  0.246132  0.253868  0.253868  0.246132  1905.33  0.0277127  0.472287  0.472287  0.0277127  1905.33  0.0277127  0.472287  0.472287  0.0277127  1905.33  0.0277126  0.472287  0.472287  0.0277126  1905.33  0.0277126  0.472287  0.472287  0.0277126  1905.39  0.0287051  0.471295  0.471295  0.0287051  1905.39  0.0287169  0.471283  0.471283  0.0287169  1986.93  0.254104  0.245896  0.245896  0.254104  1986.98  0.254435  0.245565  0.245565  0.254435  2020.98  0.472205  0.0277951  0.0277951  0.472205  2021.04  0.472282  0.0277184  0.0277184  0.472282  2021.04  0.472282  0.027718  0.027718  0.472282  2021.1  0.472352  0.0276482  0.0276482  0.472352  2044.19  0.254599  0.245401  0.245401  0.254599  2097.21  0.247905  0.252095  0.252095  0.247905  2100.15  0.241666  0.258334  0.258334  0.241666  2108.74  0.0289635  0.471036  0.471036  0.0289635  2109.74  0.0277124  0.472288  0.472288  0.0277124  2109.74  0.0277124  0.472288  0.472288  0.0277124  2109.75  0.0277135  0.472286  0.472286  0.0277135  2109.75  0.0277135  0.472286  0.472286  0.0277135  2109.75  0.0277141  0.472286  0.472286  0.0277141  2109.75  0.0277141  0.472286  0.472286  0.0277141  2110.85  0.0283612  0.471639  0.471639  0.0283612  2123.25  0.472283  0.0277167  0.0277167  0.472283  2123.25  0.472283  0.0277166  0.0277166  0.472283  2211.95  0.0278438  0.472156  0.472156  0.0278438  2211.95  0.0278437  0.472156  0.472156  0.0278437  2242.25  0.260208  0.239792  0.239792  0.260208  2251.5  0.246206  0.253794  0.253794  0.246206  2251.51  0.246195  0.253805  0.253805  0.246195  2258.78  0.238503  0.261497  0.261497  0.238503  2263.08  0.0284307  0.471569  0.471569  0.0284307  2282.85  0.238931  0.261069  0.261069  0.238931  2300.01  0.261464  0.238536  0.238536  0.261464  2314.15  0.0278654  0.472135  0.472135  0.0278654  2314.19  0.0278506  0.472149  0.472149  0.0278506  2354  0.245842  0.254158  0.254158  0.245842  2354.16  0.245343  0.254657  0.254657  0.245343  2395.39  0.254103  0.245897  0.245897  0.254103  2395.43  0.254431  0.245569  0.245569  0.254431  2416.37  0.0277182  0.472282  0.472282  0.0277182  2416.37  0.0277182  0.472282  0.472282  0.0277182  2429.81  0.472204  0.027796  0.027796  0.472204  2429.93  0.472352  0.0276482  0.0276482  0.472352  2467.48  0.0277202  0.47228  0.47228  0.0277202  2467.48  0.0277201  0.47228  0.47228  0.0277201  2493.76  0.245174  0.254826  0.254826  0.245174  2532.08  0.472283  0.0277175  0.0277175  0.472283  2532.08  0.472283  0.0277175  0.0277175  0.472283  2548.13  0.252361  0.247639  0.247639  0.252361  2550.41  0.259275  0.240725  0.240725  0.259275  2620.69  0.0281781  0.471822  0.471822  0.0281781  2634.29  0.472282  0.0277179  0.0277179  0.472282  2651.19  0.260061  0.239939  0.239939  0.260061  2667.52  0.229181  0.270819  0.270819  0.229181  2671.96  0.0281916  0.471808  0.471808  0.0281916  2672.08  0.0371364  0.462864  0.462864  0.0371364  2685.39  0.472283  0.0277172  0.0277172  0.472283  2685.39  0.472283  0.0277171  0.0277171  0.472283  2762.88  0.245929  0.254071  0.254071  0.245929  2763.05  0.245421  0.254579  0.254579  0.245421  2824.12  0.0278303  0.47217  0.47217  0.0278303  2825.21  0.0277452  0.472255  0.472255  0.0277452  2825.21  0.0277453  0.472255  0.472255  0.0277453  2826.18  0.0281183  0.471882  0.471882  0.0281183  2862.03  0.254228  0.245772  0.245772  0.254228  2915.43  0.246387  0.253613  0.253613  0.246387  2918.35  0.238862  0.261138  0.261138  0.238862  2927.48  0.0289136  0.471086  0.471086  0.0289136  2927.5  0.0296761  0.470324  0.470324  0.0296761  2953.62  0.245182  0.254818  0.254818  0.245182  3007.94  0.252335  0.247665  0.247665  0.252335  3010.2  0.259234  0.240766  0.240766  0.259234  3094.22  0.47228  0.0277195  0.0277195  0.47228  3145.33  0.47228  0.0277202  0.0277202  0.47228  3145.33  0.47228  0.0277199  0.0277199  0.47228  3203.6  0.240848  0.259152  0.259152  0.240848  3220.62  0.263804  0.236196  0.236196  0.263804  3232.96  0.0278205  0.472179  0.472179  0.0278205  3235.05  0.0277703  0.47223  0.47223  0.0277703  3321.96  0.254572  0.245428  0.245428  0.254572  3336.22  0.027871  0.472129  0.472129  0.027871  3336.23  0.0278747  0.472125  0.472125  0.0278747  3349.68  0.472202  0.0277981  0.0277981  0.472202  3349.8  0.472356  0.0276438  0.0276438  0.472356  3375.47  0.247477  0.252523  0.252523  0.247477  3378.43  0.240715  0.259285  0.259285  0.240715  3438.39  0.0277807  0.472219  0.472219  0.0277807  3489.54  0.0277506  0.472249  0.472249  0.0277506  3489.58  0.0277639  0.472236  0.472236  0.0277639  3571.7  0.25905  0.24095  0.24095  0.25905  3588.5  0.236148  0.263852  0.263852  0.236148  3714.59  0.240817  0.259183  0.259183  0.240817  3731.57  0.263781  0.236219  0.236219  0.263781  3860.72  0.472162  0.027838  0.027838  0.472162  3860.84  0.472354  0.0276463  0.0276463  0.472354  3898.34  0.0278107  0.472189  0.472189  0.0278107  3949.48  0.0277415  0.472258  0.472258  0.0277415  3949.52  0.0277429  0.472257  0.472257  0.0277429  3978.92  0.252529  0.247471  0.247471  0.252529  4082.72  0.259111  0.240889  0.240889  0.259111  4099.56  0.236187  0.263813  0.263813  0.236187  4116.3  0.472238  0.0277615  0.0277615  0.472238  4152.84  0.0278341  0.472166  0.472166  0.0278341  4154.95  0.0276872  0.472313  0.472313  0.0276872  4346.71  0.247422  0.252578  0.252578  0.247422  4541  0.25248  0.24752  0.24752  0.25248  4663.87  0.0280502  0.47195  0.47195  0.0280502  4665.99  0.0276974  0.472303  0.472303  0.0276974  4678.46  0.472022  0.0279776  0.0279776  0.472022  4908.83  0.247462  0.252538  0.252538  0.247462  4920.45  0.0277137  0.472286  0.472286  0.0277137  5482.6  0.0277137  0.472286  0.472286  0.0277137  
1  0  0   -389.114  0.238608  0.261392  0.261392  0.238608  -349.54  0.22805  0.27195  0.27195  0.22805  -341.29  0.237975  0.262025  0.262025  0.237975  -341.29  0.237975  0.262025  0.262025  0.237975  -326.072  0.256986  0.243014  0.243014  0.256986  -326.072  0.256986  0.243014  0.243014  0.256986  -314.845  0.278641  0.221359  0.221359  0.278641  -244.571  0.472284  0.0277163  0.0277163  0.472284  -233.983  0.244687  0.255313  0.255313  0.244687  -233.149  0.245248  0.254752  0.254752  0.245248  -233.149  0.245248  0.254752  0.254752  0.245248  -231.194  0.248127  0.251873  0.251873  0.248127  -231.194  0.248127  0.251873  0.251873  0.248127  -230.085  0.250278  0.249722  0.249722  0.250278  -193.596  0.472081  0.027919  0.027919  0.472081  -193.531  0.472169  0.0278308  0.0278308  0.472169  -193.531  0.472169  0.0278308  0.0278308  0.472169  -193.404  0.472328  0.0276718  0.0276718  0.472328  -193.404  0.472328  0.0276718  0.0276718  0.472328  -193.341  0.472404  0.027596  0.027596  0.472404  -179.531  0.250053  0.249947  0.249947  0.250053  -178.467  0.253579  0.246421  0.246421  0.253579  -178.467  0.253579  0.246421  0.246421  0.253579  -176.49  0.259917  0.240083  0.240083  0.259917  -176.49  0.259917  0.240083  0.240083  0.259917  -175.567  0.262798  0.237202  0.237202  0.262798  -91.2627  0.472274  0.0277264  0.0277264  0.472274  -91.2625  0.472273  0.0277267  0.0277267  0.472273  -91.2625  0.472273  0.0277267  0.0277267  0.472273  -91.2622  0.472273  0.0277272  0.0277272  0.472273  -91.2622  0.472273  0.0277272  0.0277272  0.472273  -91.2621  0.472273  0.0277275  0.0277275  0.472273  -40.1815  0.471191  0.0288088  0.0288088  0.471191  -40.1766  0.4715  0.0285005  0.0285005  0.4715  -40.1766  0.4715  0.0285005  0.0285005  0.4715  -40.1676  0.472005  0.0279949  0.0279949  0.472005  -40.1676  0.472005  0.0279949  0.0279949  0.472005  -40.1636  0.472211  0.0277886  0.0277886  0.472211  -34.8909  0.24032  0.25968  0.25968  0.24032  -34.6117  0.240174  0.259826  0.259826  0.240174  -34.6117  0.240174  0.259826  0.259826  0.240174  -34.0141  0.240002  0.259998  0.259998  0.240002  -34.0141  0.240002  0.259998  0.259998  0.240002  -33.6924  0.239967  0.260033  0.260033  0.239967  -19.5607  0.262031  0.237969  0.237969  0.262031  -19.2903  0.260776  0.239224  0.239224  0.260776  -18.9199  0.261601  0.238399  0.238399  0.261601  -18.9199  0.261601  0.238399  0.238399  0.261601  -18.2065  0.262554  0.237446  0.237446  0.262554  -18.2065  0.262554  0.237446  0.237446  0.262554  -17.8688  0.263021  0.236979  0.236979  0.263021  20.2843  0.271833  0.228167  0.228167  0.271833  27.848  0.262005  0.237995  0.237995  0.262005  27.848  0.262005  0.237995  0.237995  0.262005  43.6467  0.243686  0.256314  0.256314  0.243686  43.6467  0.243686  0.256314  0.256314  0.243686  58.9741  0.223161  0.276839  0.276839  0.223161  76.5547  0.253411  0.246589  0.246589  0.253411  76.5725  0.253543  0.246457  0.246457  0.253543  76.5725  0.253543  0.246457  0.246457  0.253543  76.6087  0.253808  0.246192  0.246192  0.253808  76.6087  0.253808  0.246192  0.246192  0.253808  76.6297  0.253932  0.246068  0.246068  0.253932  113.093  0.472211  0.0277886  0.0277886  0.472211  113.093  0.472208  0.0277925  0.0277925  0.472208  113.093  0.472208  0.0277925  0.0277925  0.472208  113.094  0.4722  0.0278  0.0278  0.4722  113.094  0.4722  0.0278  0.0278  0.4722  113.095  0.472196  0.0278037  0.0278037  0.472196  113.212  0.472322  0.0276784  0.0276784  0.472322  113.212  0.472314  0.0276857  0.0276857  0.472314  113.212  0.472314  0.0276857  0.0276857  0.472314  113.213  0.4723  0.0276996  0.0276996  0.4723  113.213  0.4723  0.0276996  0.0276996  0.4723  113.213  0.472294  0.0277055  0.0277055  0.472294  137.635  0.255741  0.244259  0.244259  0.255741  137.635  0.255741  0.244259  0.244259  0.255741  137.712  0.255894  0.244106  0.244106  0.255894  138.376  0.252411  0.247589  0.247589  0.252411  138.376  0.252411  0.247589  0.247589  0.252411  138.982  0.249962  0.250038  0.250038  0.249962  190.473  0.250473  0.249527  0.249527  0.250473  192.178  0.246796  0.253204  0.253204  0.246796  192.178  0.246796  0.253204  0.253204  0.246796  195.561  0.239848  0.260152  0.260152  0.239848  195.561  0.239848  0.260152  0.260152  0.239848  197.323  0.236241  0.263759  0.263759  0.236241  215.363  0.472252  0.0277482  0.0277482  0.472252  215.363  0.472246  0.0277535  0.0277535  0.472246  215.363  0.472246  0.0277535  0.0277535  0.472246  215.363  0.472233  0.0277669  0.0277669  0.472233  215.363  0.472233  0.0277669  0.0277669  0.472233  215.363  0.472224  0.0277758  0.0277758  0.472224  226.946  0.245708  0.254292  0.254292  0.245708  226.947  0.245735  0.254265  0.254265  0.245735  226.947  0.245735  0.254265  0.254265  0.245735  226.951  0.24578  0.25422  0.25422  0.24578  226.952  0.24578  0.25422  0.25422  0.24578  226.954  0.245799  0.254201  0.254201  0.245799  279.056  0.2506  0.2494  0.2494  0.2506  279.253  0.250924  0.249076  0.249076  0.250924  279.253  0.250925  0.249075  0.249075  0.250925  279.769  0.251672  0.248328  0.248328  0.251672  279.77  0.251673  0.248327  0.248327  0.251673  280.233  0.251807  0.248193  0.248193  0.251807  280.956  0.255788  0.244212  0.244212  0.255788  281.408  0.255887  0.244113  0.244113  0.255887  281.408  0.255888  0.244112  0.244112  0.255888  281.901  0.256565  0.243435  0.243435  0.256565  281.902  0.256567  0.243433  0.243433  0.256567  282.087  0.256855  0.243145  0.243145  0.256855  335.936  0.259804  0.240196  0.240196  0.259804  335.978  0.260181  0.239819  0.239819  0.260181  335.978  0.260181  0.239819  0.239819  0.260181  336.054  0.26097  0.23903  0.23903  0.26097  336.054  0.26097  0.23903  0.23903  0.26097  336.089  0.261381  0.238619  0.238619  0.261381  354.358  0.238835  0.261165  0.261165  0.238835  354.358  0.238835  0.261165  0.261165  0.238835  354.361  0.240009  0.259991  0.259991  0.240009  354.361  0.24001  0.25999  0.25999  0.24001  354.361  0.238228  0.261772  0.261772  0.238228  354.367  0.240574  0.259426  0.259426  0.240574  368.678  0.472267  0.0277334  0.0277334  0.472267  368.678  0.472267  0.0277333  0.0277333  0.472267  368.678  0.472267  0.0277333  0.0277333  0.472267  368.678  0.472267  0.0277333  0.0277333  0.472267  368.678  0.472267  0.0277333  0.0277333  0.472267  368.678  0.472267  0.0277333  0.0277333  0.472267  419.762  0.471893  0.0281071  0.0281071  0.471893  419.762  0.471896  0.0281037  0.0281037  0.471896  419.762  0.471896  0.0281036  0.0281036  0.471896  419.763  0.471903  0.028097  0.028097  0.471903  419.763  0.471903  0.028097  0.028097  0.471903  419.763  0.471906  0.0280937  0.0280937  0.471906  419.779  0.472282  0.0277181  0.0277181  0.472282  419.779  0.472282  0.0277184  0.0277184  0.472282  419.779  0.472282  0.0277184  0.0277184  0.472282  419.779  0.472281  0.0277189  0.0277189  0.472281  419.779  0.472281  0.0277189  0.0277189  0.472281  419.779  0.472281  0.0277191  0.0277191  0.472281  430.284  0.250127  0.249873  0.249873  0.250127  430.309  0.250049  0.249951  0.249951  0.250049  430.309  0.25005  0.24995  0.24995  0.25005  430.359  0.249897  0.250103  0.250103  0.249897  430.359  0.249898  0.250102  0.250102  0.249898  430.384  0.249824  0.250176  0.250176  0.249824  451.698  0.249585  0.250415  0.250415  0.249585  451.776  0.249365  0.250635  0.250635  0.249365  451.776  0.249366  0.250634  0.250634  0.249366  451.933  0.248926  0.251074  0.251074  0.248926  451.933  0.248926  0.251074  0.251074  0.248926  452.012  0.248705  0.251295  0.251295  0.248705  559.451  0.0277334  0.472267  0.472267  0.0277334  573.089  0.472274  0.0277262  0.0277262  0.472274  573.089  0.472274  0.0277258  0.0277258  0.472274  573.089  0.472274  0.0277258  0.0277258  0.472274  573.089  0.472275  0.0277251  0.0277251  0.472275  573.089  0.472275  0.0277251  0.0277251  0.472275  573.089  0.472275  0.0277247  0.0277247  0.472275  578.216  0.239393  0.260607  0.260607  0.239393  578.22  0.239393  0.260607  0.260607  0.239393  578.225  0.239394  0.260606  0.260606  0.239394  578.229  0.239394  0.260606  0.260606  0.239394  578.427  0.239703  0.260297  0.260297  0.239703  578.435  0.239704  0.260296  0.260296  0.239704  585.47  0.255463  0.244537  0.244537  0.255463  585.47  0.255462  0.244538  0.244538  0.255462  585.47  0.255463  0.244537  0.244537  0.255463  585.471  0.255462  0.244538  0.244538  0.255462  585.855  0.255953  0.244047  0.244047  0.255953  585.856  0.255953  0.244047  0.244047  0.255953  605.127  0.261261  0.238739  0.238739  0.261261  605.144  0.261242  0.238758  0.238758  0.261242  605.166  0.261218  0.238782  0.238782  0.261218  605.184  0.261196  0.238804  0.238804  0.261196  605.415  0.261894  0.238106  0.238106  0.261894  605.45  0.261857  0.238143  0.238143  0.261857  608.669  0.0278485  0.472151  0.472151  0.0278485  609.591  0.0277928  0.472207  0.472207  0.0277928  609.591  0.0277928  0.472207  0.472207  0.0277928  611.725  0.0276439  0.472356  0.472356  0.0276439  611.725  0.0276439  0.472356  0.472356  0.0276439  612.812  0.0275685  0.472432  0.472432  0.0275685  648.797  0.247929  0.252071  0.252071  0.247929  648.96  0.247837  0.252163  0.252163  0.247837  648.966  0.247844  0.252156  0.252156  0.247844  649.333  0.247693  0.252307  0.252307  0.247693  649.338  0.2477  0.2523  0.2523  0.2477  649.551  0.247667  0.252333  0.252333  0.247667  652.741  0.240757  0.259243  0.259243  0.240757  652.939  0.240725  0.259275  0.259275  0.240725  652.949  0.240743  0.259257  0.259257  0.240743  653.285  0.240594  0.259406  0.259406  0.240594  653.293  0.240607  0.259393  0.259393  0.240607  653.442  0.240521  0.259479  0.259479  0.240521  690.828  0.254179  0.245821  0.245821  0.254179  690.892  0.254293  0.245707  0.245707  0.254293  690.974  0.254456  0.245544  0.245544  0.254456  691.115  0.254689  0.245311  0.245311  0.254689  691.125  0.254691  0.245309  0.245309  0.254691  691.385  0.255226  0.244774  0.244774  0.255226  692.596  0.253616  0.246384  0.246384  0.253616  692.673  0.253748  0.246252  0.246252  0.253748  692.751  0.253856  0.246144  0.246144  0.253856  692.936  0.254292  0.245708  0.245708  0.254292  692.971  0.254378  0.245622  0.245622  0.254378  693.209  0.254792  0.245208  0.245208  0.254792  712.855  0.027722  0.472278  0.472278  0.027722  712.862  0.0277204  0.47228  0.47228  0.0277204  712.862  0.0277204  0.47228  0.47228  0.0277204  712.874  0.0277175  0.472282  0.472282  0.0277175  712.874  0.0277175  0.472282  0.472282  0.0277175  712.881  0.0277161  0.472284  0.472284  0.0277161  726.343  0.472206  0.0277938  0.0277938  0.472206  726.343  0.472206  0.0277938  0.0277938  0.472206  726.343  0.472206  0.0277939  0.0277939  0.472206  726.343  0.472206  0.027794  0.027794  0.472206  726.343  0.472207  0.0277929  0.0277929  0.472207  726.343  0.472207  0.027793  0.027793  0.472207  726.467  0.472351  0.0276493  0.0276493  0.472351  726.467  0.472351  0.0276494  0.0276494  0.472351  726.467  0.472351  0.0276494  0.0276494  0.472351  726.467  0.47235  0.0276495  0.0276495  0.47235  726.468  0.472353  0.0276472  0.0276472  0.472353  726.468  0.472353  0.0276473  0.0276473  0.472353  763.997  0.0277158  0.472284  0.472284  0.0277158  764.017  0.027713  0.472287  0.472287  0.027713  764.017  0.027713  0.472287  0.472287  0.027713  764.057  0.0277076  0.472292  0.472292  0.0277076  764.057  0.0277076  0.472292  0.472292  0.0277076  764.076  0.0277048  0.472295  0.472295  0.0277048  804.446  0.246464  0.253536  0.253536  0.246464  804.449  0.246456  0.253544  0.253544  0.246456  804.452  0.246461  0.253539  0.253539  0.246461  804.456  0.24644  0.25356  0.25356  0.24644  804.457  0.246445  0.253555  0.253555  0.246445  804.462  0.246439  0.253561  0.253561  0.246439  828.611  0.472283  0.0277167  0.0277167  0.472283  828.611  0.472283  0.0277167  0.0277167  0.472283  828.611  0.472283  0.0277167  0.0277167  0.472283  828.611  0.472283  0.0277169  0.0277169  0.472283  828.611  0.472283  0.0277169  0.0277169  0.472283  828.612  0.472285  0.0277151  0.0277151  0.472285  828.614  0.472234  0.0277658  0.0277658  0.472234  828.614  0.472234  0.0277658  0.0277658  0.472234  828.614  0.472234  0.0277658  0.0277658  0.472234  828.614  0.472237  0.0277635  0.0277635  0.472237  828.614  0.472237  0.0277635  0.0277635  0.472237  828.614  0.472237  0.0277631  0.0277631  0.472237  894.974  0.253057  0.246943  0.246943  0.253057  894.974  0.253057  0.246943  0.246943  0.253057  894.975  0.253058  0.246942  0.246942  0.253058  895.465  0.254006  0.245994  0.245994  0.254006  895.465  0.254006  0.245994  0.245994  0.254006  895.787  0.25469  0.24531  0.24531  0.25469  916.253  0.0277887  0.472211  0.472211  0.0277887  916.253  0.0277889  0.472211  0.472211  0.0277889  916.253  0.0277889  0.472211  0.472211  0.0277889  916.254  0.0277894  0.472211  0.472211  0.0277894  916.254  0.0277894  0.472211  0.472211  0.0277894  916.255  0.0277896  0.47221  0.47221  0.0277896  918.368  0.0276425  0.472357  0.472357  0.0276425  918.369  0.0276428  0.472357  0.472357  0.0276428  918.369  0.0276428  0.472357  0.472357  0.0276428  918.369  0.0276433  0.472357  0.472357  0.0276433  918.369  0.0276433  0.472357  0.472357  0.0276433  918.37  0.0276435  0.472356  0.472356  0.0276435  947.341  0.260668  0.239332  0.239332  0.260668  947.341  0.260666  0.239334  0.239334  0.260666  947.344  0.26067  0.23933  0.23933  0.26067  947.345  0.26066  0.23934  0.23934  0.26066  948.098  0.260552  0.239448  0.239448  0.260552  948.101  0.260536  0.239464  0.239464  0.260536  960.962  0.23945  0.26055  0.26055  0.23945  960.962  0.23945  0.26055  0.26055  0.23945  961.015  0.239489  0.260511  0.260511  0.239489  961.017  0.239474  0.260526  0.260526  0.239474  965.614  0.237208  0.262792  0.262792  0.237208  965.618  0.237186  0.262814  0.262814  0.237186  997.148  0.243283  0.256717  0.256717  0.243283  997.148  0.243283  0.256717  0.256717  0.243283  997.383  0.243607  0.256393  0.256393  0.243607  997.383  0.243609  0.256391  0.256391  0.243609  1019.54  0.027714  0.472286  0.472286  0.027714  1019.54  0.027714  0.472286  0.472286  0.027714  1019.54  0.027714  0.472286  0.472286  0.027714  1019.54  0.027714  0.472286  0.472286  0.027714  1019.54  0.027714  0.472286  0.472286  0.027714  1019.54  0.027714  0.472286  0.472286  0.027714  1033.02  0.472233  0.0277673  0.0277673  0.472233  1033.02  0.472234  0.0277661  0.0277661  0.472234  1033.02  0.472236  0.0277643  0.0277643  0.472236  1033.02  0.472246  0.0277535  0.0277535  0.472246  1033.02  0.472246  0.0277535  0.0277535  0.472246  1033.02  0.472259  0.027741  0.027741  0.472259  1043.65  0.250974  0.249026  0.249026  0.250974  1043.65  0.250971  0.249029  0.249029  0.250971  1043.94  0.251426  0.248574  0.248574  0.251426  1044.07  0.251515  0.248485  0.248485  0.251515  1045.67  0.256707  0.243293  0.243293  0.256707  1045.68  0.2567  0.2433  0.2433  0.2567  1046.02  0.257277  0.242723  0.242723  0.257277  1046.18  0.257464  0.242536  0.242536  0.257464  1059.86  0.245539  0.254461  0.254461  0.245539  1060.33  0.245816  0.254184  0.254184  0.245816  1060.36  0.245583  0.254417  0.254417  0.245583  1060.9  0.245897  0.254103  0.254103  0.245897  1063.78  0.247087  0.252913  0.252913  0.247087  1063.9  0.247103  0.252897  0.252897  0.247103  1064.11  0.247186  0.252814  0.252814  0.247186  1064.35  0.247203  0.252797  0.252797  0.247203  1064.79  0.248521  0.251479  0.251479  0.248521  1064.96  0.248287  0.251713  0.251713  0.248287  1065.16  0.248432  0.251568  0.251568  0.248432  1065.33  0.248615  0.251385  0.251385  0.248615  1135.24  0.472283  0.0277169  0.0277169  0.472283  1135.24  0.472283  0.0277169  0.0277169  0.472283  1135.24  0.472284  0.0277159  0.0277159  0.472284  1135.24  0.472284  0.0277159  0.0277159  0.472284  1172.8  0.0277218  0.472278  0.472278  0.0277218  1172.8  0.0277219  0.472278  0.472278  0.0277219  1172.8  0.027722  0.472278  0.472278  0.027722  1172.8  0.027722  0.472278  0.472278  0.027722  1172.8  0.027722  0.472278  0.472278  0.027722  1172.8  0.027722  0.472278  0.472278  0.027722  1186.34  0.472221  0.0277788  0.0277788  0.472221  1186.34  0.472221  0.0277788  0.0277788  0.472221  1186.34  0.47223  0.02777  0.02777  0.47223  1186.34  0.47223  0.02777  0.02777  0.47223  1186.34  0.472225  0.0277749  0.0277749  0.472225  1186.34  0.472238  0.0277622  0.0277622  0.472238  1186.34  0.472238  0.0277622  0.0277622  0.472238  1186.34  0.472242  0.0277582  0.0277582  0.472242  1199.63  0.253283  0.246717  0.246717  0.253283  1199.63  0.253283  0.246717  0.246717  0.253283  1199.85  0.253703  0.246297  0.246297  0.253703  1201.18  0.253933  0.246067  0.246067  0.253933  1201.18  0.253933  0.246067  0.246067  0.253933  1202.29  0.253494  0.246506  0.246506  0.253494  1202.29  0.253494  0.246506  0.246506  0.253494  1202.49  0.253849  0.246151  0.246151  0.253849  1223.94  0.0277186  0.472281  0.472281  0.0277186  1223.94  0.0277185  0.472282  0.472282  0.0277185  1223.94  0.027719  0.472281  0.472281  0.027719  1223.94  0.0277184  0.472282  0.472282  0.0277184  1223.94  0.027719  0.472281  0.472281  0.027719  1223.94  0.0277187  0.472281  0.472281  0.0277187  1223.98  0.0277131  0.472287  0.472287  0.0277131  1223.98  0.0277129  0.472287  0.472287  0.0277129  1223.98  0.0277134  0.472287  0.472287  0.0277134  1223.98  0.0277129  0.472287  0.472287  0.0277129  1223.98  0.0277134  0.472287  0.472287  0.0277134  1223.98  0.0277131  0.472287  0.472287  0.0277131  1264.36  0.245498  0.254502  0.254502  0.245498  1265.35  0.246349  0.253651  0.253651  0.246349  1265.35  0.246349  0.253651  0.253651  0.246349  1265.59  0.247128  0.252872  0.252872  0.247128  1265.59  0.247128  0.252872  0.252872  0.247128  1265.59  0.24714  0.25286  0.25286  0.24714  1339.65  0.472279  0.0277206  0.0277206  0.472279  1339.65  0.472279  0.0277206  0.0277206  0.472279  1339.65  0.472283  0.0277165  0.0277165  0.472283  1339.65  0.472278  0.0277218  0.0277218  0.472278  1339.65  0.472278  0.0277216  0.0277216  0.472278  1339.65  0.472281  0.0277193  0.0277193  0.472281  1339.65  0.472281  0.0277193  0.0277193  0.472281  1339.65  0.472276  0.0277242  0.0277242  0.472276  1362.59  0.254461  0.245539  0.245539  0.254461  1362.59  0.254461  0.245539  0.245539  0.254461  1363.45  0.254431  0.245569  0.245569  0.254431  1363.45  0.254431  0.245569  0.245569  0.254431  1377.26  0.0277207  0.472279  0.472279  0.0277207  1377.26  0.0277207  0.472279  0.472279  0.0277207  1377.26  0.0277207  0.472279  0.472279  0.0277207  1377.26  0.0277204  0.47228  0.47228  0.0277204  1377.26  0.0277204  0.47228  0.47228  0.0277204  1377.26  0.0277201  0.47228  0.47228  0.0277201  1415.4  0.248972  0.251028  0.251028  0.248972  1415.4  0.248972  0.251028  0.251028  0.248972  1416.81  0.248371  0.251629  0.251629  0.248371  1416.81  0.248382  0.251618  0.251618  0.248382  1418.2  0.242592  0.257408  0.257408  0.242592  1418.2  0.242592  0.257408  0.257408  0.242592  1420.04  0.241  0.259  0.259  0.241  1420.04  0.240988  0.259012  0.259012  0.240988  1456.67  0.253383  0.246617  0.246617  0.253383  1456.67  0.253383  0.246617  0.246617  0.253383  1456.94  0.253937  0.246063  0.246063  0.253937  1499.66  0.238912  0.261088  0.261088  0.238912  1499.66  0.238912  0.261088  0.261088  0.238912  1517.18  0.261182  0.238818  0.238818  0.261182  1517.18  0.261182  0.238818  0.238818  0.261182  1529.5  0.027787  0.472213  0.472213  0.027787  1529.5  0.027787  0.472213  0.472213  0.027787  1529.5  0.0277962  0.472204  0.472204  0.0277962  1529.5  0.0277962  0.472204  0.472204  0.0277962  1529.5  0.0277979  0.472202  0.472202  0.0277979  1529.5  0.0277979  0.472202  0.472202  0.0277979  1531.6  0.0276423  0.472358  0.472358  0.0276423  1531.6  0.0276423  0.472358  0.472358  0.0276423  1531.62  0.0276523  0.472348  0.472348  0.0276523  1531.62  0.0276522  0.472348  0.472348  0.0276522  1531.62  0.0276547  0.472345  0.472345  0.0276547  1531.62  0.0276547  0.472345  0.472345  0.0276547  1568.73  0.247493  0.252507  0.252507  0.247493  1568.73  0.247493  0.252507  0.252507  0.247493  1568.83  0.246606  0.253394  0.253394  0.246606  1568.83  0.246606  0.253394  0.253394  0.246606  1570.59  0.246202  0.253798  0.253798  0.246202  1571.5  0.246612  0.253388  0.253388  0.246612  1571.5  0.246611  0.253389  0.253389  0.246611  1572.03  0.246682  0.253318  0.253318  0.246682  1595.17  0.472245  0.0277548  0.0277548  0.472245  1595.17  0.472245  0.0277548  0.0277548  0.472245  1595.18  0.472246  0.0277542  0.0277542  0.472246  1612.52  0.252759  0.247241  0.247241  0.252759  1612.52  0.252759  0.247241  0.247241  0.252759  1613.32  0.254013  0.245987  0.245987  0.254013  1613.32  0.254013  0.245987  0.245987  0.254013  1632.77  0.0277122  0.472288  0.472288  0.0277122  1632.78  0.0277153  0.472285  0.472285  0.0277153  1632.78  0.0277153  0.472285  0.472285  0.0277153  1632.78  0.0277127  0.472287  0.472287  0.0277127  1632.79  0.0277446  0.472255  0.472255  0.0277446  1632.79  0.0277466  0.472253  0.472253  0.0277466  1632.79  0.0277459  0.472254  0.472254  0.0277459  1632.79  0.0277465  0.472253  0.472253  0.0277465  1632.79  0.0277465  0.472253  0.472253  0.0277465  1632.79  0.0277416  0.472258  0.472258  0.0277416  1632.79  0.0277431  0.472257  0.472257  0.0277431  1632.79  0.0277424  0.472258  0.472258  0.0277424  1646.21  0.472205  0.0277946  0.0277946  0.472205  1646.21  0.472205  0.0277946  0.0277946  0.472205  1646.34  0.472352  0.0276482  0.0276482  0.472352  1646.34  0.472352  0.0276482  0.0276482  0.472352  1748.48  0.472279  0.0277214  0.0277214  0.472279  1748.48  0.472279  0.0277214  0.0277214  0.472279  1748.48  0.472284  0.0277164  0.0277164  0.472284  1748.48  0.472284  0.0277164  0.0277164  0.472284  1810.29  0.251861  0.248139  0.248139  0.251861  1810.29  0.251861  0.248139  0.248139  0.251861  1826.23  0.244813  0.255187  0.255187  0.244813  1830.91  0.245423  0.254577  0.254577  0.245423  1830.91  0.245423  0.254577  0.254577  0.245423  1837.19  0.0277122  0.472288  0.472288  0.0277122  1837.19  0.0277133  0.472287  0.472287  0.0277133  1837.19  0.0277133  0.472287  0.472287  0.0277133  1837.26  0.0289127  0.471087  0.471087  0.0289127  1837.28  0.0305424  0.469458  0.469458  0.0305424  1837.28  0.0305424  0.469458  0.469458  0.0305424  1867.52  0.260859  0.239141  0.239141  0.260859  1867.52  0.260859  0.239141  0.239141  0.260859  1883.86  0.238505  0.261495  0.261495  0.238505  1883.86  0.238505  0.261495  0.261495  0.238505  1939.35  0.0277193  0.472281  0.472281  0.0277193  1939.35  0.0277193  0.472281  0.472281  0.0277193  1939.37  0.0277667  0.472233  0.472233  0.0277667  1939.37  0.0277667  0.472233  0.472233  0.0277667  1952.9  0.472267  0.0277333  0.0277333  0.472267  1952.9  0.472267  0.0277333  0.0277333  0.472267  1978.88  0.245988  0.254012  0.254012  0.245988  1978.88  0.245988  0.254012  0.254012  0.245988  1979.15  0.244646  0.255354  0.255354  0.244646  1979.15  0.244646  0.255354  0.255354  0.244646  1990.49  0.0277141  0.472286  0.472286  0.0277141  1990.49  0.0277141  0.472286  0.472286  0.0277141  1990.53  0.0277087  0.472291  0.472291  0.0277087  1990.53  0.0277087  0.472291  0.472291  0.0277087  1990.56  0.0287242  0.471276  0.471276  0.0287242  1990.56  0.0287242  0.471276  0.471276  0.0287242  1990.6  0.0287078  0.471292  0.471292  0.0287078  1990.6  0.0287078  0.471292  0.471292  0.0287078  2068  0.245081  0.254919  0.254919  0.245081  2068  0.245081  0.254919  0.254919  0.245081  2122  0.251545  0.248455  0.248455  0.251545  2122  0.251545  0.248455  0.248455  0.251545  2124.46  0.258653  0.241347  0.241347  0.258653  2124.46  0.258653  0.241347  0.241347  0.258653  2143.8  0.0278344  0.472166  0.472166  0.0278344  2143.8  0.0278344  0.472166  0.472166  0.0278344  2143.81  0.0277128  0.472287  0.472287  0.0277128  2143.82  0.0277269  0.472273  0.472273  0.0277269  2143.82  0.0277269  0.472273  0.472273  0.0277269  2143.82  0.0277181  0.472282  0.472282  0.0277181  2143.82  0.0277181  0.472282  0.472282  0.0277181  2143.82  0.0277135  0.472287  0.472287  0.0277135  2182.96  0.246537  0.253463  0.253463  0.246537  2182.96  0.246537  0.253463  0.253463  0.246537  2208.42  0.472283  0.0277172  0.0277172  0.472283  2208.42  0.472283  0.0277172  0.0277172  0.472283  2259.52  0.472239  0.0277611  0.0277611  0.472239  2259.52  0.472239  0.0277611  0.0277611  0.472239  2259.52  0.472284  0.0277162  0.0277162  0.472284  2259.52  0.472284  0.0277162  0.0277162  0.472284  2276.17  0.253655  0.246345  0.246345  0.253655  2276.17  0.253655  0.246345  0.246345  0.253655  2399.33  0.0277126  0.472287  0.472287  0.0277126  2399.33  0.0277143  0.472286  0.472286  0.0277143  2399.33  0.0277143  0.472286  0.472286  0.0277143  2412.83  0.472281  0.0277189  0.0277189  0.472281  2412.83  0.472281  0.0277189  0.0277189  0.472281  2435.94  0.253025  0.246975  0.246975  0.253025  2435.94  0.253025  0.246975  0.246975  0.253025  2449.35  0.0279266  0.472073  0.472073  0.0279266  2449.35  0.0279266  0.472073  0.472073  0.0279266  2451.6  0.0293478  0.470652  0.470652  0.0293478  2451.6  0.0293478  0.470652  0.470652  0.0293478  2489.37  0.248256  0.251744  0.251744  0.248256  2489.37  0.248256  0.251744  0.251744  0.248256  2492.32  0.241417  0.258583  0.258583  0.241417  2492.32  0.241417  0.258583  0.258583  0.241417  2552.66  0.0277793  0.472221  0.472221  0.0277793  2552.66  0.0277793  0.472221  0.472221  0.0277793  2552.66  0.0277452  0.472255  0.472255  0.0277452  2552.66  0.0277452  0.472255  0.472255  0.0277452  2643.41  0.246318  0.253682  0.253682  0.246318  2643.41  0.246318  0.253682  0.253682  0.246318  2726.17  0.239853  0.260147  0.260147  0.239853  2726.17  0.239853  0.260147  0.260147  0.239853  2743.28  0.262691  0.237309  0.237309  0.262691  2743.28  0.262691  0.237309  0.237309  0.262691  2757.07  0.0277204  0.47228  0.47228  0.0277204  2757.07  0.0277204  0.47228  0.47228  0.0277204  2838.12  0.254243  0.245757  0.245757  0.254243  2838.12  0.254243  0.245757  0.245757  0.254243  2872.71  0.472205  0.027795  0.027795  0.472205  2872.71  0.472205  0.027795  0.027795  0.472205  2872.83  0.472354  0.0276458  0.0276458  0.472354  2872.83  0.472354  0.0276458  0.0276458  0.472354  2974.98  0.47228  0.0277201  0.0277201  0.47228  2974.98  0.47228  0.0277201  0.0277201  0.47228  3012.52  0.0278146  0.472185  0.472185  0.0278146  3012.52  0.0278146  0.472185  0.472185  0.0278146  3063.66  0.0278524  0.472148  0.472148  0.0278524  3063.66  0.0278524  0.472148  0.472148  0.0278524  3063.69  0.0279947  0.472005  0.472005  0.0279947  3063.69  0.0279947  0.472005  0.472005  0.0279947  3094.45  0.259712  0.240288  0.240288  0.259712  3094.45  0.259712  0.240288  0.240288  0.259712  3111.12  0.237227  0.262773  0.262773  0.237227  3111.12  0.237227  0.262773  0.262773  0.237227  3205.84  0.244379  0.255621  0.255621  0.244379  3205.84  0.244379  0.255621  0.255621  0.244379  3217.07  0.0290777  0.470922  0.470922  0.0290777  3217.07  0.0290777  0.470922  0.470922  0.0290777  3449.21  0.248693  0.251307  0.251307  0.248693  3449.21  0.248693  0.251307  0.251307  0.248693  3503.01  0.255932  0.244068  0.244068  0.255932  3503.01  0.255932  0.244068  0.244068  0.255932  3588.23  0.472276  0.027724  0.027724  0.472276  3588.23  0.472276  0.027724  0.027724  0.472276  3639.33  0.472261  0.0277392  0.0277392  0.472261  3639.33  0.472261  0.0277392  0.0277392  0.472261  3675.87  0.0278195  0.472181  0.472181  0.0278195  3675.87  0.0278195  0.472181  0.472181  0.0278195  3677.97  0.0277172  0.472283  0.472283  0.0277172  3677.97  0.0277172  0.472283  0.472283  0.0277172  3779.14  0.0277601  0.47224  0.47224  0.0277601  3779.14  0.0277601  0.47224  0.47224  0.0277601  3817.27  0.251209  0.248791  0.248791  0.251209  3817.27  0.251209  0.248791  0.248791  0.251209  3871  0.244038  0.255962  0.255962  0.244038  3871  0.244038  0.255962  0.255962  0.244038  4268.48  0.252505  0.247495  0.247495  0.252505  4268.48  0.252505  0.247495  0.247495  0.252505  4392.36  0.0279037  0.472096  0.472096  0.0279037  4392.36  0.0279037  0.472096  0.472096  0.0279037  4405.89  0.472105  0.0278953  0.0278953  0.472105  4405.89  0.472105  0.0278953  0.0278953  0.472105  4443.51  0.0277565  0.472244  0.472244  0.0277565  4443.51  0.0277565  0.472244  0.472244  0.0277565  4636.29  0.247442  0.252558  0.252558  0.247442  4636.29  0.247442  0.252558  0.252558  0.247442  5210.04  0.0277137  0.472286  0.472286  0.0277137  5210.04  0.0277137  0.472286  0.472286  0.0277137  
2  -0.0579087  0.0334336   -376.75  0.235154  0.264851  0.264846  0.235149  -376.75  0.235149  0.264846  0.264851  0.235154  -356.972  0.255621  0.244379  0.244379  0.255621  -317.684  0.244817  0.255183  0.255183  0.244817  -317.684  0.244817  0.255183  0.255183  0.244817  -313.686  0.257723  0.242277  0.242277  0.257723  -273.13  0.237989  0.262011  0.262011  0.237989  -271.302  0.24347  0.25653  0.25653  0.24347  -271.302  0.24347  0.25653  0.25653  0.24347  -256.287  0.262922  0.237078  0.237078  0.262922  -256.287  0.262922  0.237078  0.237078  0.262922  -254.797  0.26853  0.23147  0.23147  0.26853  -227.661  0.472132  0.027868  0.027868  0.472132  -227.473  0.472325  0.0276455  0.0276488  0.472381  -227.473  0.472381  0.0276488  0.0276455  0.472325  -176.449  0.471667  0.0283335  0.0283335  0.471667  -176.449  0.471683  0.028317  0.028317  0.471683  -176.449  0.471683  0.028317  0.028317  0.471683  -170.362  0.240539  0.259461  0.259461  0.240539  -170.328  0.240801  0.259199  0.259199  0.240801  -170.328  0.240801  0.259199  0.259199  0.240801  -154.428  0.262669  0.237331  0.237331  0.262669  -154.428  0.262669  0.237331  0.237331  0.262669  -154.418  0.262804  0.237196  0.237196  0.262804  -125.392  0.472205  0.027795  0.027795  0.472205  -125.391  0.472201  0.0277992  0.0277992  0.472201  -125.391  0.472201  0.0277992  0.0277992  0.472201  -125.278  0.472134  0.0278664  0.0278664  0.472134  -125.278  0.472134  0.0278664  0.0278664  0.472134  -125.277  0.472132  0.0278676  0.0278676  0.472132  -113.204  0.24643  0.25357  0.25357  0.24643  -113.204  0.24643  0.25357  0.25357  0.24643  -113.193  0.246495  0.253505  0.253505  0.246495  -59.9493  0.251815  0.248185  0.248185  0.251815  -59.9231  0.252015  0.247985  0.247985  0.252015  -59.9231  0.252015  0.247985  0.247985  0.252015  -57.9806  0.258205  0.241795  0.241795  0.258205  -57.9806  0.258205  0.241795  0.241795  0.258205  -57.9578  0.258373  0.241627  0.241627  0.258373  -23.1832  0.472204  0.0277955  0.0277955  0.472204  -23.1832  0.472204  0.0277958  0.0277958  0.472204  -23.1832  0.472204  0.0277958  0.0277958  0.472204  -23.0625  0.472335  0.0276645  0.0276645  0.472335  -23.0625  0.472335  0.0276645  0.0276645  0.472335  -23.0624  0.472335  0.0276648  0.0276648  0.472335  -7.29013  0.264771  0.23523  0.235229  0.26477  -7.29013  0.26477  0.235229  0.23523  0.264771  13.1644  0.246379  0.253621  0.253621  0.246379  27.9804  0.472277  0.0277234  0.0277234  0.472277  27.9804  0.472277  0.0277234  0.0277234  0.472277  27.9804  0.472277  0.0277228  0.0277228  0.472277  39.8494  0.245952  0.254048  0.254048  0.245952  39.8496  0.245947  0.254053  0.254053  0.245947  39.8505  0.245945  0.254055  0.254055  0.245945  52.0087  0.255622  0.244378  0.244378  0.255622  52.0087  0.255622  0.244378  0.244378  0.255622  57.6167  0.243097  0.256903  0.256903  0.243097  79.0766  0.472157  0.0278432  0.0278432  0.472157  79.0774  0.472174  0.0278261  0.0278261  0.472174  79.0774  0.472174  0.0278261  0.0278261  0.472174  79.0787  0.472198  0.0278022  0.0278022  0.472198  79.0787  0.472198  0.0278022  0.0278022  0.472198  79.0793  0.472209  0.0277915  0.0277915  0.472209  92.943  0.251911  0.248089  0.248089  0.251911  92.9564  0.251619  0.248381  0.248381  0.251619  92.9572  0.251622  0.248378  0.248378  0.251622  94.8278  0.257932  0.242068  0.242068  0.257932  94.8292  0.257936  0.242064  0.242064  0.257936  94.8642  0.257559  0.242441  0.242441  0.257559  96.1758  0.26156  0.23844  0.23844  0.26156  98.4088  0.256374  0.243626  0.243626  0.256374  98.4089  0.256374  0.243626  0.243626  0.256374  115.008  0.237764  0.262236  0.262236  0.237764  115.008  0.237764  0.262236  0.262236  0.237764  118.345  0.23038  0.26962  0.26962  0.23038  135.893  0.239418  0.260582  0.260582  0.239418  135.894  0.239419  0.260581  0.260581  0.239419  135.894  0.239419  0.260581  0.260581  0.239419  151.239  0.261409  0.238591  0.238591  0.261409  151.239  0.261406  0.238594  0.238594  0.261406  151.241  0.261402  0.238598  0.238598  0.261402  181.289  0.472228  0.0277715  0.0277715  0.472228  181.289  0.472229  0.0277708  0.0277708  0.472229  181.289  0.472229  0.0277708  0.0277708  0.472229  199.336  0.260388  0.239612  0.239612  0.260388  199.468  0.25997  0.24003  0.24003  0.25997  199.468  0.25997  0.24003  0.24003  0.25997  217.574  0.238204  0.261796  0.261796  0.238204  217.574  0.238204  0.261796  0.261796  0.238204  217.759  0.237672  0.262328  0.262328  0.237672  232.394  0.472184  0.0278157  0.0278157  0.472184  232.394  0.472184  0.0278157  0.0278157  0.472184  232.394  0.472185  0.0278154  0.0278154  0.472185  232.396  0.47213  0.0278697  0.0278697  0.47213  232.396  0.47213  0.0278696  0.0278696  0.47213  232.396  0.472128  0.0278717  0.0278717  0.472128  246.175  0.253582  0.246418  0.246418  0.253582  246.177  0.253587  0.246413  0.246413  0.253587  246.187  0.253513  0.246487  0.246487  0.253513  246.206  0.252762  0.247238  0.247238  0.252762  246.216  0.252696  0.247304  0.247304  0.252696  246.218  0.252703  0.247297  0.247297  0.252703  257.399  0.254022  0.245978  0.245978  0.254022  257.399  0.254022  0.245978  0.245978  0.254022  257.409  0.253978  0.246022  0.246022  0.253978  283.44  0.472195  0.0278048  0.0278048  0.472195  283.44  0.472195  0.0278048  0.0278048  0.472195  283.44  0.472195  0.0278048  0.0278048  0.472195  283.568  0.47231  0.02769  0.02769  0.47231  283.568  0.47231  0.02769  0.02769  0.47231  283.568  0.47231  0.02769  0.02769  0.47231  311.217  0.248927  0.251073  0.251073  0.248927  311.36  0.248518  0.251482  0.251482  0.248518  311.36  0.248518  0.251482  0.251482  0.248518  314.678  0.241875  0.258125  0.258125  0.241875  314.678  0.241875  0.258125  0.258125  0.241875  314.822  0.241479  0.258521  0.258521  0.241479  340.121  0.239303  0.260697  0.260697  0.239303  340.121  0.239301  0.260699  0.260699  0.239301  340.35  0.23965  0.26035  0.26035  0.23965  354.476  0.260602  0.239398  0.239398  0.260602  354.476  0.260601  0.239399  0.239399  0.260601  355.202  0.261866  0.238134  0.238134  0.261866  385.708  0.472272  0.0277284  0.0277284  0.472272  385.708  0.472272  0.0277283  0.0277283  0.472272  385.708  0.472272  0.0277281  0.0277281  0.472272  385.708  0.472271  0.0277287  0.0277287  0.472271  385.708  0.472272  0.0277285  0.0277285  0.472272  385.708  0.472272  0.0277284  0.0277284  0.472272  411.216  0.256212  0.243788  0.243788  0.256212  411.217  0.256211  0.243789  0.243789  0.256211  411.236  0.256278  0.243722  0.243722  0.256278  447.053  0.250159  0.249841  0.249841  0.250159  447.063  0.250234  0.249766  0.249766  0.250234  447.479  0.2507  0.2493  0.2493  0.2507  447.722  0.247056  0.252944  0.252944  0.247056  447.793  0.247104  0.252896  0.252896  0.247104  447.866  0.247533  0.252467  0.252467  0.247533  447.935  0.24747  0.25253  0.25253  0.24747  448.165  0.246905  0.253095  0.253095  0.246905  448.342  0.24882  0.25118  0.25118  0.24882  467.893  0.251407  0.248593  0.248593  0.251407  467.895  0.2514  0.2486  0.2486  0.2514  468.017  0.251771  0.248229  0.248229  0.251771  470.799  0.245875  0.254125  0.254125  0.245875  470.801  0.245868  0.254132  0.254132  0.245868  470.898  0.246261  0.253739  0.253739  0.246261  487.858  0.472196  0.0278037  0.0278037  0.472196  487.858  0.472196  0.0278037  0.0278037  0.472196  487.859  0.472197  0.0278029  0.0278029  0.472197  487.982  0.472343  0.0276566  0.0276566  0.472343  487.982  0.472343  0.0276566  0.0276566  0.472343  487.983  0.472346  0.027654  0.027654  0.472346  495.573  0.254043  0.245957  0.245957  0.254043  495.574  0.254046  0.245954  0.245954  0.254046  495.875  0.25467  0.24533  0.24533  0.25467  500.014  0.251294  0.248706  0.248706  0.251294  500.015  0.251297  0.248703  0.248703  0.251297  500.502  0.252115  0.247885  0.247885  0.252115  511.572  0.257837  0.242163  0.242163  0.257837  511.573  0.257839  0.242161  0.242161  0.257839  511.77  0.258073  0.241927  0.241927  0.258073  527.814  0.244517  0.255483  0.255483  0.244517  527.814  0.244518  0.255482  0.255482  0.244518  527.92  0.244979  0.255021  0.255021  0.244979  574.4  0.0278753  0.472125  0.472125  0.0278753  577.635  0.0276479  0.472363  0.472342  0.0276467  577.635  0.0276467  0.472342  0.472363  0.0276479  590.122  0.472256  0.0277442  0.0277442  0.472256  590.122  0.472256  0.027744  0.027744  0.472256  590.122  0.472256  0.027744  0.027744  0.472256  590.122  0.472256  0.0277439  0.0277439  0.472256  590.123  0.472259  0.0277409  0.0277409  0.472259  590.123  0.472259  0.0277409  0.0277409  0.472259  590.127  0.472281  0.0277191  0.0277191  0.472281  590.127  0.472281  0.0277191  0.0277191  0.472281  590.128  0.472282  0.0277176  0.0277176  0.472282  615.981  0.245865  0.254135  0.254135  0.245865  615.995  0.245873  0.254127  0.254127  0.245873  616.013  0.245896  0.254104  0.254104  0.245896  616.195  0.245302  0.254698  0.254698  0.245302  616.21  0.245319  0.254681  0.254681  0.245319  616.227  0.245336  0.254664  0.254664  0.245336  627.694  0.0277188  0.472281  0.472281  0.0277188  627.694  0.0277188  0.472281  0.472281  0.0277188  627.75  0.0277111  0.472289  0.472289  0.0277111  641.23  0.47223  0.0277699  0.0277699  0.47223  641.23  0.47223  0.0277696  0.0277696  0.47223  641.23  0.47223  0.0277696  0.0277696  0.47223  641.23  0.472232  0.0277682  0.0277682  0.472232  641.231  0.472237  0.0277633  0.0277633  0.472237  641.231  0.472238  0.0277623  0.0277623  0.472238  657.674  0.253599  0.246401  0.246401  0.253599  657.677  0.253596  0.246404  0.246404  0.253596  657.681  0.253593  0.246407  0.246407  0.253593  658.177  0.254574  0.245426  0.245426  0.254574  658.21  0.254668  0.245332  0.245332  0.254668  658.537  0.255372  0.244628  0.244628  0.255372  677.776  0.0277871  0.472213  0.472213  0.0277871  677.776  0.0277871  0.472213  0.472213  0.0277871  677.805  0.0277832  0.472217  0.472217  0.0277832  679.875  0.0276432  0.472357  0.472357  0.0276432  679.905  0.0276391  0.472361  0.472361  0.0276391  679.905  0.0276391  0.472361  0.472361  0.0276391  700.606  0.245725  0.254275  0.254275  0.245725  700.607  0.245725  0.254275  0.254275  0.245725  708.255  0.260266  0.239734  0.239734  0.260266  708.255  0.260266  0.239734  0.239734  0.260266  709.667  0.260437  0.239563  0.239563  0.260437  727.277  0.236911  0.263089  0.263089  0.236911  727.774  0.236748  0.263252  0.263252  0.236748  727.774  0.236748  0.263252  0.263252  0.236748  758.229  0.251715  0.248285  0.248285  0.251715  758.23  0.251718  0.248282  0.248282  0.251718  761.999  0.259222  0.240778  0.240778  0.259222  761.999  0.259223  0.240777  0.240777  0.259223  779.98  0.0277881  0.472212  0.472212  0.0277881  779.981  0.0277881  0.472212  0.472212  0.0277881  779.981  0.0277881  0.472212  0.472212  0.0277881  782.094  0.0276422  0.472358  0.472358  0.0276422  782.094  0.0276423  0.472358  0.472358  0.0276423  782.094  0.0276422  0.472358  0.472358  0.0276422  794.539  0.472262  0.027738  0.027738  0.472262  794.539  0.472262  0.0277378  0.0277378  0.472262  794.539  0.472262  0.0277375  0.0277375  0.472262  794.539  0.472265  0.027735  0.027735  0.472265  794.54  0.472269  0.0277313  0.0277313  0.472269  794.54  0.47227  0.0277295  0.0277295  0.47227  816.241  0.253772  0.246228  0.246228  0.253772  816.242  0.253772  0.246228  0.246228  0.253772  818.461  0.254249  0.245751  0.245751  0.254249  821.814  0.246334  0.253666  0.253666  0.246334  821.818  0.246335  0.253665  0.253665  0.246335  821.93  0.245723  0.254277  0.254277  0.245723  822.081  0.245822  0.254178  0.254178  0.245822  822.085  0.245823  0.254177  0.254177  0.245823  822.128  0.245117  0.254883  0.254883  0.245117  832.106  0.0277205  0.472279  0.472279  0.0277205  832.106  0.0277205  0.472279  0.472279  0.0277205  832.106  0.0277203  0.47228  0.47228  0.0277203  845.647  0.472283  0.0277175  0.0277175  0.472283  845.647  0.472283  0.0277175  0.0277175  0.472283  848.842  0.240672  0.259328  0.259328  0.240672  848.843  0.240678  0.259322  0.259322  0.240678  861.87  0.25669  0.24331  0.24331  0.25669  861.87  0.25669  0.24331  0.24331  0.25669  871.862  0.248059  0.251941  0.251941  0.248059  873.463  0.246946  0.253054  0.253054  0.246946  873.469  0.246948  0.253052  0.253052  0.246948  875.15  0.240534  0.259466  0.259466  0.240534  882.036  0.247357  0.252643  0.252643  0.247357  882.044  0.247368  0.252632  0.252632  0.247368  883.25  0.0277167  0.472283  0.472283  0.0277167  883.25  0.0277235  0.472277  0.472277  0.0277235  883.25  0.0277215  0.472279  0.472279  0.0277215  883.29  0.0277093  0.472291  0.472291  0.0277093  883.29  0.0277092  0.472291  0.472291  0.0277092  883.29  0.0277092  0.472291  0.472291  0.0277092  896.747  0.472234  0.0277663  0.0277663  0.472234  896.747  0.472234  0.0277662  0.0277662  0.472234  896.747  0.472234  0.0277663  0.0277663  0.472234  896.748  0.472237  0.0277634  0.0277634  0.472237  911.942  0.253195  0.246805  0.246805  0.253195  911.942  0.253196  0.246804  0.246804  0.253196  911.943  0.253197  0.246803  0.246803  0.253197  912.471  0.254219  0.245781  0.245781  0.254219  962.737  0.253433  0.246567  0.246567  0.253433  962.774  0.25361  0.24639  0.24639  0.25361  962.819  0.253842  0.246158  0.246158  0.253842  963.264  0.254765  0.245235  0.245235  0.254765  985.417  0.0277207  0.472279  0.472279  0.0277207  985.417  0.0277207  0.472279  0.472279  0.0277207  985.417  0.0277206  0.472279  0.472279  0.0277206  998.897  0.472207  0.0277935  0.0277935  0.472207  998.897  0.472206  0.0277935  0.0277935  0.472206  999.021  0.472352  0.0276483  0.0276483  0.472352  999.021  0.472352  0.0276483  0.0276483  0.472352  1026.05  0.245087  0.254913  0.254913  0.245087  1026.42  0.246017  0.253983  0.253983  0.246017  1026.59  0.246807  0.253193  0.253193  0.246807  1026.59  0.246799  0.253201  0.253201  0.246799  1026.6  0.246791  0.253209  0.253209  0.246791  1027.07  0.24596  0.25404  0.25404  0.24596  1036.56  0.0277174  0.472283  0.472283  0.0277174  1036.56  0.0277174  0.472283  0.472283  0.0277174  1036.56  0.0277165  0.472284  0.472284  0.0277165  1036.6  0.027711  0.472289  0.472289  0.027711  1036.6  0.0277113  0.472289  0.472289  0.0277113  1036.6  0.0277113  0.472289  0.472289  0.0277113  1050.06  0.472259  0.0277413  0.0277413  0.472259  1050.06  0.472259  0.0277411  0.0277411  0.472259  1050.06  0.472259  0.0277409  0.0277409  0.472259  1050.06  0.472264  0.0277357  0.0277357  0.472264  1072.7  0.254248  0.245752  0.245752  0.254248  1072.71  0.254258  0.245742  0.245742  0.254258  1086.6  0.0277896  0.47221  0.47221  0.0277896  1086.6  0.0277898  0.47221  0.47221  0.0277898  1086.6  0.0277898  0.47221  0.47221  0.0277898  1088.72  0.0276439  0.472356  0.472356  0.0276439  1088.72  0.0276441  0.472356  0.472356  0.0276441  1088.72  0.0276441  0.472356  0.472356  0.0276441  1101.17  0.472277  0.0277227  0.0277227  0.472277  1101.17  0.472277  0.0277227  0.0277227  0.472277  1101.17  0.472277  0.0277227  0.0277227  0.472277  1101.17  0.472282  0.0277177  0.0277177  0.472282  1124.63  0.248665  0.251335  0.251335  0.248665  1124.65  0.248692  0.251308  0.251308  0.248692  1127.46  0.243609  0.256391  0.256391  0.243609  1127.49  0.243617  0.256383  0.256383  0.243617  1160.05  0.239135  0.260865  0.260865  0.239135  1160.2  0.239357  0.260643  0.260643  0.239357  1167.01  0.2528  0.2472  0.2472  0.2528  1167.01  0.2528  0.2472  0.2472  0.2528  1167.01  0.252801  0.247199  0.247199  0.252801  1177.87  0.260241  0.239759  0.239759  0.260241  1178.38  0.261168  0.238832  0.238832  0.261168  1189.88  0.0277156  0.472284  0.472284  0.0277156  1189.88  0.0277164  0.472284  0.472284  0.0277164  1189.88  0.0277179  0.472282  0.472282  0.0277179  1189.88  0.0277155  0.472284  0.472284  0.0277155  1189.88  0.0277172  0.472283  0.472283  0.0277172  1189.88  0.0277176  0.472282  0.472282  0.0277176  1220.08  0.260792  0.239208  0.239208  0.260792  1220.08  0.260792  0.239208  0.239208  0.260792  1235.64  0.23856  0.26144  0.26144  0.23856  1235.66  0.238568  0.261432  0.261432  0.238568  1265.55  0.252434  0.247566  0.247566  0.252434  1265.64  0.25278  0.24722  0.24722  0.25278  1265.86  0.252881  0.247119  0.247119  0.252881  1265.91  0.253203  0.246797  0.246797  0.253203  1285.7  0.247927  0.252073  0.252073  0.247927  1285.78  0.248109  0.251891  0.251891  0.248109  1285.8  0.248191  0.251809  0.251809  0.248191  1286.44  0.247899  0.252101  0.252101  0.247899  1291.02  0.0278261  0.472174  0.472174  0.0278261  1291.02  0.027831  0.472169  0.472169  0.027831  1291.02  0.0277868  0.472213  0.472213  0.0277868  1293.12  0.0276421  0.472358  0.472358  0.0276421  1293.13  0.0276611  0.472339  0.472339  0.0276611  1293.13  0.0276626  0.472337  0.472337  0.0276626  1305.52  0.472205  0.0277952  0.0277952  0.472205  1305.52  0.472206  0.0277941  0.0277941  0.472206  1305.58  0.472239  0.0277605  0.0277605  0.472239  1305.58  0.472239  0.0277605  0.0277605  0.472239  1305.58  0.47224  0.0277604  0.0277604  0.47224  1305.65  0.472351  0.0276494  0.0276494  0.472351  1305.65  0.472352  0.0276477  0.0276477  0.472352  1319.03  0.244149  0.255851  0.255851  0.244149  1319.25  0.244389  0.255611  0.255611  0.244389  1330.27  0.247469  0.252531  0.252531  0.247469  1330.31  0.24719  0.25281  0.25281  0.24719  1330.6  0.247968  0.252032  0.252032  0.247968  1330.71  0.246953  0.253047  0.253047  0.246953  1373.9  0.251096  0.248904  0.248904  0.251096  1373.95  0.25127  0.24873  0.24873  0.25127  1376.43  0.258297  0.241703  0.241703  0.258297  1376.56  0.258129  0.241871  0.241871  0.258129  1394.24  0.027719  0.472281  0.472281  0.027719  1394.25  0.02773  0.47227  0.47227  0.02773  1394.25  0.0277301  0.47227  0.47227  0.0277301  1394.29  0.0277123  0.472288  0.472288  0.0277123  1394.29  0.0277123  0.472288  0.472288  0.0277123  1394.3  0.0277202  0.47228  0.47228  0.0277202  1394.3  0.0277202  0.47228  0.47228  0.0277202  1394.3  0.0277202  0.47228  0.47228  0.0277202  1394.3  0.0277201  0.47228  0.47228  0.0277201  1407.79  0.472278  0.0277215  0.0277215  0.472278  1407.79  0.47228  0.0277201  0.0277201  0.47228  1407.79  0.47228  0.0277201  0.0277201  0.47228  1407.79  0.472283  0.0277165  0.0277165  0.472283  1445.39  0.0277138  0.472286  0.472286  0.0277138  1445.39  0.0277222  0.472278  0.472278  0.0277222  1445.39  0.0277222  0.472278  0.472278  0.0277222  1445.43  0.0277084  0.472292  0.472292  0.0277084  1445.43  0.0277166  0.472283  0.472283  0.0277166  1445.43  0.0277166  0.472283  0.472283  0.0277166  1458.89  0.472283  0.0277168  0.0277168  0.472283  1458.89  0.472284  0.0277159  0.0277159  0.472284  1472.95  0.252649  0.247351  0.247351  0.252649  1473.35  0.253386  0.246614  0.246614  0.253386  1473.35  0.253387  0.246613  0.246613  0.253387  1509.99  0.4722  0.0277995  0.0277995  0.4722  1509.99  0.472211  0.0277892  0.0277892  0.472211  1509.99  0.472211  0.0277892  0.0277892  0.472211  1510  0.472284  0.0277157  0.0277157  0.472284  1521.02  0.252092  0.247908  0.247908  0.252092  1521.33  0.2526  0.2474  0.2474  0.2526  1521.34  0.25261  0.24739  0.24739  0.25261  1526.78  0.260852  0.239148  0.239148  0.260852  1527.2  0.260667  0.239333  0.239333  0.260667  1541.45  0.248121  0.251879  0.251879  0.248121  1541.52  0.248304  0.251696  0.251696  0.248304  1541.52  0.248312  0.251688  0.251688  0.248312  1542.88  0.238492  0.261508  0.261508  0.238492  1544.6  0.237561  0.262439  0.262439  0.237561  1598.71  0.0277131  0.472287  0.472287  0.0277131  1598.71  0.0277119  0.472288  0.472288  0.0277119  1598.71  0.027713  0.472287  0.472287  0.027713  1598.72  0.0277436  0.472256  0.472256  0.0277436  1598.72  0.0277436  0.472256  0.472256  0.0277436  1598.72  0.0277436  0.472256  0.472256  0.0277436  1612.2  0.472263  0.0277366  0.0277366  0.472263  1612.2  0.472267  0.0277326  0.0277326  0.472267  1612.2  0.472268  0.0277324  0.0277324  0.472268  1637.92  0.246961  0.253039  0.253039  0.246961  1638.2  0.245612  0.254388  0.254388  0.245612  1639.3  0.246299  0.253701  0.253701  0.246299  1639.49  0.245738  0.254262  0.254262  0.245738  1649.77  0.0277429  0.472257  0.472257  0.0277429  1649.77  0.0277508  0.472249  0.472249  0.0277508  1663.31  0.472279  0.0277207  0.0277207  0.472279  1663.31  0.47228  0.0277195  0.0277195  0.47228  1663.31  0.472281  0.0277192  0.0277192  0.472281  1676.42  0.245078  0.254922  0.254922  0.245078  1686.4  0.254534  0.245466  0.245466  0.254534  1687.07  0.254483  0.245517  0.245517  0.254483  1700.92  0.0277442  0.472256  0.472256  0.0277442  1700.92  0.0277481  0.472252  0.472252  0.0277481  1700.96  0.027738  0.472262  0.472262  0.027738  1700.96  0.0277386  0.472261  0.472261  0.0277386  1730.57  0.25152  0.24848  0.24848  0.25152  1733.08  0.258624  0.241376  0.241376  0.258624  1739.6  0.248315  0.251685  0.251685  0.248315  1740.41  0.248456  0.251544  0.251544  0.248456  1742.5  0.241545  0.258455  0.258455  0.241545  1743.63  0.241132  0.258868  0.258868  0.241132  1779.68  0.253156  0.246844  0.246844  0.253156  1779.69  0.253184  0.246816  0.246816  0.253184  1779.93  0.253663  0.246337  0.246337  0.253663  1802.06  0.0278186  0.472181  0.472181  0.0278186  1802.06  0.0278198  0.47218  0.47218  0.0278198  1804.18  0.0276746  0.472325  0.472325  0.0276746  1804.18  0.0276747  0.472325  0.472325  0.0276747  1816.62  0.472283  0.0277169  0.0277169  0.472283  1841.89  0.246926  0.253074  0.253074  0.246926  1844.22  0.245354  0.254646  0.254646  0.245354  1844.22  0.245364  0.254636  0.254636  0.245364  1854.23  0.0277138  0.472286  0.472286  0.0277138  1854.28  0.0286192  0.471381  0.471381  0.0286192  1854.3  0.0291256  0.470874  0.470874  0.0291256  1854.3  0.0291263  0.470874  0.470874  0.0291263  1867.72  0.472242  0.0277579  0.0277579  0.472242  1867.73  0.472284  0.0277158  0.0277158  0.472284  1874.66  0.239869  0.260131  0.260131  0.239869  1884.77  0.252403  0.247597  0.247597  0.252403  1891.98  0.262156  0.237844  0.237844  0.262156  1893.53  0.246931  0.253069  0.253069  0.246931  1894.86  0.24535  0.25465  0.25465  0.24535  1894.86  0.245331  0.254669  0.254669  0.245331  1905.34  0.0277187  0.472281  0.472281  0.0277187  1905.39  0.0287175  0.471282  0.471282  0.0287175  1905.4  0.0289831  0.471017  0.471017  0.0289831  1905.4  0.0289834  0.471017  0.471017  0.0289834  1918.83  0.472264  0.0277363  0.0277363  0.472264  1918.83  0.472262  0.0277381  0.0277381  0.472262  1918.83  0.472263  0.0277366  0.0277366  0.472263  1986.25  0.25304  0.24696  0.24696  0.25304  2020.98  0.472208  0.027792  0.027792  0.472208  2021.04  0.472279  0.0277206  0.0277206  0.472279  2021.1  0.472355  0.0276453  0.0276453  0.472355  2044.19  0.254564  0.245436  0.245436  0.254564  2097.42  0.247173  0.252827  0.252827  0.247173  2100.38  0.240811  0.259189  0.259189  0.240811  2108.68  0.0277873  0.472213  0.472213  0.0277873  2108.74  0.029013  0.470987  0.470987  0.029013  2109.73  0.0278726  0.472127  0.472127  0.0278726  2109.73  0.0278502  0.47215  0.47215  0.0278502  2109.73  0.0278406  0.472159  0.472159  0.0278406  2110.78  0.0276424  0.472358  0.472358  0.0276424  2110.85  0.0283924  0.471608  0.471608  0.0283924  2123.24  0.472277  0.0277225  0.0277225  0.472277  2133.75  0.251668  0.248332  0.248332  0.251668  2147.84  0.246901  0.253099  0.253099  0.246901  2149.89  0.246057  0.253943  0.253943  0.246057  2154.47  0.248174  0.251826  0.251826  0.248174  2191.77  0.253098  0.246902  0.246902  0.253098  2211.95  0.0278427  0.472157  0.472157  0.0278427  2211.95  0.0277128  0.472287  0.472287  0.0277128  2211.95  0.0277128  0.472287  0.472287  0.0277128  2211.96  0.0277196  0.47228  0.47228  0.0277196  2242.58  0.259272  0.240728  0.240728  0.259272  2251.59  0.247272  0.252728  0.252728  0.247272  2259.2  0.237219  0.262781  0.262781  0.237219  2263.01  0.0277194  0.472281  0.472281  0.0277194  2263.08  0.028467  0.471533  0.471533  0.028467  2276.56  0.472264  0.027736  0.027736  0.472264  2283.35  0.239869  0.260131  0.260131  0.239869  2300.55  0.262684  0.237316  0.237316  0.262684  2314.15  0.0277142  0.472286  0.472286  0.0277142  2314.16  0.0278349  0.472165  0.472165  0.0278349  2314.19  0.0277088  0.472291  0.472291  0.0277088  2314.2  0.0277684  0.472232  0.472232  0.0277684  2327.66  0.472267  0.0277335  0.0277335  0.472267  2353.89  0.246831  0.253169  0.253169  0.246831  2394.75  0.253064  0.246936  0.246936  0.253064  2416.37  0.0277555  0.472244  0.472244  0.0277555  2416.37  0.0277136  0.472286  0.472286  0.0277136  2416.37  0.0277136  0.472286  0.472286  0.0277136  2429.81  0.472207  0.0277929  0.0277929  0.472207  2429.93  0.472355  0.0276454  0.0276454  0.472355  2467.47  0.0277135  0.472286  0.472286  0.0277135  2467.47  0.0277132  0.472287  0.472287  0.0277132  2467.47  0.0277566  0.472243  0.472243  0.0277566  2495.42  0.248643  0.251357  0.251357  0.248643  2506.53  0.246827  0.253173  0.253173  0.246827  2532.08  0.472278  0.0277225  0.0277225  0.472278  2548.54  0.254524  0.245476  0.245476  0.254524  2557.99  0.246658  0.253342  0.253342  0.246658  2599.55  0.253281  0.246719  0.246719  0.253281  2620.69  0.0281706  0.471829  0.471829  0.0281706  2634.29  0.472283  0.0277172  0.0277172  0.472283  2651.5  0.25916  0.24084  0.24084  0.25916  2667.92  0.226611  0.273389  0.273389  0.226611  2671.96  0.0281817  0.471818  0.471818  0.0281817  2672.1  0.0384228  0.461577  0.461577  0.0384228  2685.39  0.472236  0.0277645  0.0277645  0.472236  2701.69  0.253652  0.246348  0.246348  0.253652  2722.99  0.0277127  0.472287  0.472287  0.0277127  2722.99  0.0277144  0.472286  0.472286  0.0277144  2722.99  0.0277183  0.472282  0.472282  0.0277183  2736.49  0.472265  0.0277354  0.0277354  0.472265  2762.8  0.246902  0.253098  0.253098  0.246902  2824.13  0.0278107  0.472189  0.472189  0.0278107  2825.21  0.0277693  0.472231  0.472231  0.0277693  2826.2  0.0280351  0.471965  0.471965  0.0280351  2838.7  0.472279  0.0277214  0.0277214  0.472279  2863.36  0.250842  0.249158  0.249158  0.250842  2916.54  0.244072  0.255928  0.255928  0.244072  2927.49  0.029176  0.470824  0.470824  0.029176  2955.25  0.248629  0.251371  0.251371  0.248629  2966.93  0.246661  0.253339  0.253339  0.246661  3008.36  0.25454  0.24546  0.24546  0.25454  3069.34  0.246335  0.253665  0.253665  0.246335  3080.72  0.0277205  0.472279  0.472279  0.0277205  3094.22  0.472281  0.0277188  0.0277188  0.472281  3131.83  0.0277453  0.472255  0.472255  0.0277453  3145.32  0.472231  0.0277686  0.0277686  0.472231  3161.44  0.25363  0.24637  0.24637  0.25363  3211.46  0.250454  0.249546  0.249546  0.250454  3232.96  0.0278057  0.472194  0.472194  0.0278057  3235.06  0.0277475  0.472252  0.472252  0.0277475  3298.64  0.472261  0.0277394  0.0277394  0.472261  3314.97  0.254202  0.245798  0.245798  0.254202  3323.27  0.251148  0.248852  0.248852  0.251148  3336.22  0.0279306  0.472069  0.472069  0.0279306  3349.74  0.472274  0.0277263  0.0277263  0.472274  3376.62  0.245377  0.254623  0.254623  0.245377  3438.42  0.0277461  0.472254  0.472254  0.0277461  3451.95  0.472261  0.0277387  0.0277387  0.472261  3489.55  0.0278052  0.472195  0.472195  0.0278052  3529.25  0.245085  0.254915  0.254915  0.245085  3540.73  0.0290246  0.470975  0.470975  0.0290246  3579.51  0.249448  0.250552  0.250552  0.249448  3642.84  0.0278624  0.472138  0.472138  0.0278624  3682.93  0.245649  0.254351  0.254351  0.245649  3722.43  0.25043  0.24957  0.24957  0.25043  3825.92  0.254169  0.245831  0.245831  0.254169  3860.78  0.472252  0.0277475  0.0277475  0.472252  3898.35  0.0277623  0.472238  0.472238  0.0277623  3949.49  0.0279262  0.472074  0.472074  0.0279262  3962.99  0.472128  0.0278724  0.0278724  0.472128  4030.03  0.252526  0.247474  0.247474  0.252526  4090.54  0.249499  0.250501  0.250501  0.249499  4102.79  0.0277615  0.472238  0.472238  0.0277615  4153.88  0.0278998  0.4721  0.4721  0.0278998  4167.41  0.472125  0.0278753  0.0278753  0.472125  4193.97  0.245779  0.254221  0.254221  0.245779  4256.11  0.0277431  0.472257  0.472257  0.0277431  4397.82  0.247417  0.252583  0.252583  0.247417  4592.11  0.252462  0.247538  0.247538  0.252462  4664.93  0.0277749  0.472225  0.472225  0.0277749  4729.55  0.472258  0.027742  0.027742  0.472258  4767.15  0.0277581  0.472242  0.472242  0.0277581  4959.94  0.247458  0.252542  0.252542  0.247458  4971.56  0.0277137  0.472286  0.472286  0.0277137  5533.7  0.0277137  0.472286  0.472286  0.0277137  
3  -0.0579087  -0.0334336   -376.75  0.235152  0.264849  0.264848  0.235151  -376.75  0.235151  0.264848  0.264849  0.235152  -356.972  0.255621  0.244379  0.244379  0.255621  -317.684  0.244817  0.255183  0.255183  0.244817  -317.684  0.244817  0.255183  0.255183  0.244817  -313.686  0.257723  0.242277  0.242277  0.257723  -273.13  0.237989  0.262011  0.262011  0.237989  -271.302  0.24347  0.25653  0.25653  0.24347  -271.302  0.24347  0.25653  0.25653  0.24347  -256.287  0.262922  0.237078  0.237078  0.262922  -256.287  0.262922  0.237078  0.237078  0.262922  -254.797  0.26853  0.23147  0.23147  0.26853  -227.661  0.472132  0.027868  0.027868  0.472132  -227.473  0.472388  0.0276492  0.0276451  0.472318  -227.473  0.472318  0.0276451  0.0276492  0.472388  -176.449  0.471667  0.0283335  0.0283335  0.471667  -176.449  0.471683  0.028317  0.028317  0.471683  -176.449  0.471683  0.028317  0.028317  0.471683  -170.362  0.240539  0.259461  0.259461  0.240539  -170.328  0.240801  0.259199  0.259199  0.240801  -170.328  0.240801  0.259199  0.259199  0.240801  -154.428  0.262669  0.237331  0.237331  0.262669  -154.428  0.262669  0.237331  0.237331  0.262669  -154.418  0.262804  0.237196  0.237196  0.262804  -125.392  0.472205  0.027795  0.027795  0.472205  -125.391  0.472201  0.0277992  0.0277992  0.472201  -125.391  0.472201  0.0277992  0.0277992  0.472201  -125.278  0.472134  0.0278664  0.0278664  0.472134  -125.278  0.472134  0.0278664  0.0278664  0.472134  -125.277  0.472132  0.0278676  0.0278676  0.472132  -113.204  0.24643  0.25357  0.25357  0.24643  -113.204  0.24643  0.25357  0.25357  0.24643  -113.193  0.246495  0.253505  0.253505  0.246495  -59.9493  0.251815  0.248185  0.248185  0.251815  -59.9231  0.252015  0.247985  0.247985  0.252015  -59.9231  0.252015  0.247985  0.247985  0.252015  -57.9806  0.258205  0.241795  0.241795  0.258205  -57.9806  0.258205  0.241795  0.241795  0.258205  -57.9578  0.258373  0.241627  0.241627  0.258373  -23.1832  0.472204  0.0277955  0.0277955  0.472204  -23.1832  0.472204  0.0277958  0.0277958  0.472204  -23.1832  0.472204  0.0277958  0.0277958  0.472204  -23.0625  0.472335  0.0276645  0.0276645  0.472335  -23.0625  0.472335  0.0276645  0.0276645  0.472335  -23.0624  0.472335  0.0276648  0.0276648  0.472335  -7.29013  0.264771  0.23523  0.235229  0.26477  -7.29013  0.26477  0.235229  0.23523  0.264771  13.1644  0.246379  0.253621  0.253621  0.246379  27.9804  0.472277  0.0277234  0.0277234  0.472277  27.9804  0.472277  0.0277234  0.0277234  0.472277  27.9804  0.472277  0.0277228  0.0277228  0.472277  39.8494  0.245952  0.254048  0.254048  0.245952  39.8496  0.245947  0.254053  0.254053  0.245947  39.8505  0.245945  0.254055  0.254055  0.245945  52.0087  0.255622  0.244378  0.244378  0.255622  52.0087  0.255622  0.244378  0.244378  0.255622  57.6167  0.243097  0.256903  0.256903  0.243097  79.0766  0.472157  0.0278432  0.0278432  0.472157  79.0774  0.472174  0.0278261  0.0278261  0.472174  79.0774  0.472174  0.0278261  0.0278261  0.472174  79.0787  0.472198  0.0278022  0.0278022  0.472198  79.0787  0.472198  0.0278022  0.0278022  0.472198  79.0793  0.472209  0.0277915  0.0277915  0.472209  92.943  0.251911  0.248089  0.248089  0.251911  92.9564  0.251619  0.248381  0.248381  0.251619  92.9572  0.251622  0.248378  0.248378  0.251622  94.8278  0.257932  0.242068  0.242068  0.257932  94.8292  0.257936  0.242064  0.242064  0.257936  94.8642  0.257559  0.242441  0.242441  0.257559  96.1758  0.26156  0.23844  0.23844  0.26156  98.4088  0.256374  0.243626  0.243626  0.256374  98.4089  0.256374  0.243626  0.243626  0.256374  115.008  0.237764  0.262236  0.262236  0.237764  115.008  0.237764  0.262236  0.262236  0.237764  118.345  0.23038  0.26962  0.26962  0.23038  135.893  0.239418  0.260582  0.260582  0.239418  135.894  0.239419  0.260581  0.260581  0.239419  135.894  0.239419  0.260581  0.260581  0.239419  151.239  0.261409  0.238591  0.238591  0.261409  151.239  0.261406  0.238594  0.238594  0.261406  151.241  0.261402  0.238598  0.238598  0.261402  181.289  0.472228  0.0277715  0.0277715  0.472228  181.289  0.472229  0.0277708  0.0277708  0.472229  181.289  0.472229  0.0277708  0.0277708  0.472229  199.336  0.260388  0.239612  0.239612  0.260388  199.468  0.25997  0.24003  0.24003  0.25997  199.468  0.25997  0.24003  0.24003  0.25997  217.574  0.238204  0.261796  0.261796  0.238204  217.574  0.238204  0.261796  0.261796  0.238204  217.759  0.237672  0.262328  0.262328  0.237672  232.394  0.472184  0.0278157  0.0278157  0.472184  232.394  0.472184  0.0278157  0.0278157  0.472184  232.394  0.472185  0.0278154  0.0278154  0.472185  232.396  0.47213  0.0278697  0.0278697  0.47213  232.396  0.47213  0.0278696  0.0278696  0.47213  232.396  0.472128  0.0278717  0.0278717  0.472128  246.175  0.253582  0.246418  0.246418  0.253582  246.177  0.253587  0.246413  0.246413  0.253587  246.187  0.253513  0.246487  0.246487  0.253513  246.206  0.252762  0.247238  0.247238  0.252762  246.216  0.252696  0.247304  0.247304  0.252696  246.218  0.252703  0.247297  0.247297  0.252703  257.399  0.254022  0.245978  0.245978  0.254022  257.399  0.254022  0.245978  0.245978  0.254022  257.409  0.253978  0.246022  0.246022  0.253978  283.44  0.472195  0.0278048  0.0278048  0.472195  283.44  0.472195  0.0278048  0.0278048  0.472195  283.44  0.472195  0.0278048  0.0278048  0.472195  283.568  0.47231  0.02769  0.02769  0.47231  283.568  0.47231  0.02769  0.02769  0.47231  283.568  0.47231  0.02769  0.02769  0.47231  311.217  0.248927  0.251073  0.251073  0.248927  311.36  0.248518  0.251482  0.251482  0.248518  311.36  0.248518  0.251482  0.251482  0.248518  314.678  0.241875  0.258125  0.258125  0.241875  314.678  0.241875  0.258125  0.258125  0.241875  314.822  0.241479  0.258521  0.258521  0.241479  340.121  0.239303  0.260697  0.260697  0.239303  340.121  0.239301  0.260699  0.260699  0.239301  340.35  0.23965  0.26035  0.26035  0.23965  354.476  0.260602  0.239398  0.239398  0.260602  354.476  0.260601  0.239399  0.239399  0.260601  355.202  0.261866  0.238134  0.238134  0.261866  385.708  0.472272  0.0277284  0.0277284  0.472272  385.708  0.472272  0.0277283  0.0277283  0.472272  385.708  0.472272  0.0277281  0.0277281  0.472272  385.708  0.472271  0.0277287  0.0277287  0.472271  385.708  0.472272  0.0277285  0.0277285  0.472272  385.708  0.472272  0.0277284  0.0277284  0.472272  411.216  0.256212  0.243788  0.243788  0.256212  411.217  0.256211  0.243789  0.243789  0.256211  411.236  0.256278  0.243722  0.243722  0.256278  447.053  0.250159  0.249841  0.249841  0.250159  447.063  0.250234  0.249766  0.249766  0.250234  447.479  0.2507  0.2493  0.2493  0.2507  447.722  0.247056  0.252944  0.252944  0.247056  447.793  0.247104  0.252896  0.252896  0.247104  447.866  0.247533  0.252467  0.252467  0.247533  447.935  0.24747  0.25253  0.25253  0.24747  448.165  0.246905  0.253095  0.253095  0.246905  448.342  0.24882  0.25118  0.25118  0.24882  467.893  0.251407  0.248593  0.248593  0.251407  467.895  0.2514  0.2486  0.2486  0.2514  468.017  0.251771  0.248229  0.248229  0.251771  470.799  0.245875  0.254125  0.254125  0.245875  470.801  0.245868  0.254132  0.254132  0.245868  470.898  0.246261  0.253739  0.253739  0.246261  487.858  0.472196  0.0278037  0.0278037  0.472196  487.858  0.472196  0.0278037  0.0278037  0.472196  487.859  0.472197  0.0278029  0.0278029  0.472197  487.982  0.472343  0.0276566  0.0276566  0.472343  487.982  0.472343  0.0276566  0.0276566  0.472343  487.983  0.472346  0.027654  0.027654  0.472346  495.573  0.254043  0.245957  0.245957  0.254043  495.574  0.254046  0.245954  0.245954  0.254046  495.875  0.25467  0.24533  0.24533  0.25467  500.014  0.251294  0.248706  0.248706  0.251294  500.015  0.251297  0.248703  0.248703  0.251297  500.502  0.252115  0.247885  0.247885  0.252115  511.572  0.257837  0.242163  0.242163  0.257837  511.573  0.257839  0.242161  0.242161  0.257839  511.77  0.258073  0.241927  0.241927  0.258073  527.814  0.244517  0.255483  0.255483  0.244517  527.814  0.244518  0.255482  0.255482  0.244518  527.92  0.244979  0.255021  0.255021  0.244979  574.4  0.0278753  0.472125  0.472125  0.0278753  577.635  0.0276466  0.472341  0.472364  0.027648  577.635  0.027648  0.472364  0.472341  0.0276466  590.122  0.472256  0.0277442  0.0277442  0.472256  590.122  0.472256  0.027744  0.027744  0.472256  590.122  0.472256  0.027744  0.027744  0.472256  590.122  0.472256  0.0277439  0.0277439  0.472256  590.123  0.472259  0.0277409  0.0277409  0.472259  590.123  0.472259  0.0277409  0.0277409  0.472259  590.127  0.472281  0.0277191  0.0277191  0.472281  590.127  0.472281  0.0277191  0.0277191  0.472281  590.128  0.472282  0.0277176  0.0277176  0.472282  615.981  0.245865  0.254135  0.254135  0.245865  615.995  0.245873  0.254127  0.254127  0.245873  616.013  0.245896  0.254104  0.254104  0.245896  616.195  0.245302  0.254698  0.254698  0.245302  616.21  0.245319  0.254681  0.254681  0.245319  616.227  0.245336  0.254664  0.254664  0.245336  627.694  0.0277188  0.472281  0.472281  0.0277188  627.694  0.0277188  0.472281  0.472281  0.0277188  627.75  0.0277111  0.472289  0.472289  0.0277111  641.23  0.47223  0.0277699  0.0277699  0.47223  641.23  0.47223  0.0277696  0.0277696  0.47223  641.23  0.47223  0.0277696  0.0277696  0.47223  641.23  0.472232  0.0277682  0.0277682  0.472232  641.231  0.472237  0.0277633  0.0277633  0.472237  641.231  0.472238  0.0277623  0.0277623  0.472238  657.674  0.253599  0.246401  0.246401  0.253599  657.677  0.253596  0.246404  0.246404  0.253596  657.681  0.253593  0.246407  0.246407  0.253593  658.177  0.254574  0.245426  0.245426  0.254574  658.21  0.254668  0.245332  0.245332  0.254668  658.537  0.255372  0.244628  0.244628  0.255372  677.776  0.0277871  0.472213  0.472213  0.0277871  677.776  0.0277871  0.472213  0.472213  0.0277871  677.805  0.0277832  0.472217  0.472217  0.0277832  679.875  0.0276432  0.472357  0.472357  0.0276432  679.905  0.0276391  0.472361  0.472361  0.0276391  679.905  0.0276391  0.472361  0.472361  0.0276391  700.606  0.245725  0.254275  0.254275  0.245725  700.607  0.245725  0.254275  0.254275  0.245725  708.255  0.260266  0.239734  0.239734  0.260266  708.255  0.260266  0.239734  0.239734  0.260266  709.667  0.260437  0.239563  0.239563  0.260437  727.277  0.236911  0.263089  0.263089  0.236911  727.774  0.236748  0.263252  0.263252  0.236748  727.774  0.236748  0.263252  0.263252  0.236748  758.229  0.251715  0.248285  0.248285  0.251715  758.23  0.251718  0.248282  0.248282  0.251718  761.999  0.259222  0.240778  0.240778  0.259222  761.999  0.259223  0.240777  0.240777  0.259223  779.98  0.0277881  0.472212  0.472212  0.0277881  779.981  0.0277881  0.472212  0.472212  0.0277881  779.981  0.0277881  0.472212  0.472212  0.0277881  782.094  0.0276422  0.472358  0.472358  0.0276422  782.094  0.0276423  0.472358  0.472358  0.0276423  782.094  0.0276422  0.472358  0.472358  0.0276422  794.539  0.472262  0.027738  0.027738  0.472262  794.539  0.472262  0.0277378  0.0277378  0.472262  794.539  0.472262  0.0277375  0.0277375  0.472262  794.539  0.472265  0.027735  0.027735  0.472265  794.54  0.472269  0.0277313  0.0277313  0.472269  794.54  0.47227  0.0277295  0.0277295  0.47227  816.241  0.253772  0.246228  0.246228  0.253772  816.242  0.253772  0.246228  0.246228  0.253772  818.461  0.254249  0.245751  0.245751  0.254249  821.814  0.246334  0.253666  0.253666  0.246334  821.818  0.246335  0.253665  0.253665  0.246335  821.93  0.245723  0.254277  0.254277  0.245723  822.081  0.245822  0.254178  0.254178  0.245822  822.085  0.245823  0.254177  0.254177  0.245823  822.128  0.245117  0.254883  0.254883  0.245117  832.106  0.0277205  0.472279  0.472279  0.0277205  832.106  0.0277205  0.472279  0.472279  0.0277205  832.106  0.0277203  0.47228  0.47228  0.0277203  845.647  0.472283  0.0277175  0.0277175  0.472283  845.647  0.472283  0.0277175  0.0277175  0.472283  848.842  0.240672  0.259328  0.259328  0.240672  848.843  0.240678  0.259322  0.259322  0.240678  861.87  0.25669  0.24331  0.24331  0.25669  861.87  0.25669  0.24331  0.24331  0.25669  871.862  0.248059  0.251941  0.251941  0.248059  873.463  0.246946  0.253054  0.253054  0.246946  873.469  0.246948  0.253052  0.253052  0.246948  875.15  0.240534  0.259466  0.259466  0.240534  882.036  0.247357  0.252643  0.252643  0.247357  882.044  0.247368  0.252632  0.252632  0.247368  883.25  0.0277167  0.472283  0.472283  0.0277167  883.25  0.0277235  0.472277  0.472277  0.0277235  883.25  0.0277215  0.472279  0.472279  0.0277215  883.29  0.0277093  0.472291  0.472291  0.0277093  883.29  0.0277092  0.472291  0.472291  0.0277092  883.29  0.0277092  0.472291  0.472291  0.0277092  896.747  0.472234  0.0277663  0.0277663  0.472234  896.747  0.472234  0.0277662  0.0277662  0.472234  896.747  0.472234  0.0277663  0.0277663  0.472234  896.748  0.472237  0.0277634  0.0277634  0.472237  911.942  0.253195  0.246805  0.246805  0.253195  911.942  0.253196  0.246804  0.246804  0.253196  911.943  0.253197  0.246803  0.246803  0.253197  912.471  0.254219  0.245781  0.245781  0.254219  962.737  0.253433  0.246567  0.246567  0.253433  962.774  0.25361  0.24639  0.24639  0.25361  962.819  0.253842  0.246158  0.246158  0.253842  963.264  0.254765  0.245235  0.245235  0.254765  985.417  0.0277207  0.472279  0.472279  0.0277207  985.417  0.0277207  0.472279  0.472279  0.0277207  985.417  0.0277206  0.472279  0.472279  0.0277206  998.897  0.472207  0.0277935  0.0277935  0.472207  998.897  0.472206  0.0277935  0.0277935  0.472206  999.021  0.472352  0.0276483  0.0276483  0.472352  999.021  0.472352  0.0276483  0.0276483  0.472352  1026.05  0.245087  0.254913  0.254913  0.245087  1026.42  0.246017  0.253983  0.253983  0.246017  1026.59  0.246807  0.253193  0.253193  0.246807  1026.59  0.246799  0.253201  0.253201  0.246799  1026.6  0.246791  0.253209  0.253209  0.246791  1027.07  0.24596  0.25404  0.25404  0.24596  1036.56  0.0277174  0.472283  0.472283  0.0277174  1036.56  0.0277174  0.472283  0.472283  0.0277174  1036.56  0.0277165  0.472284  0.472284  0.0277165  1036.6  0.027711  0.472289  0.472289  0.027711  1036.6  0.0277113  0.472289  0.472289  0.0277113  1036.6  0.0277113  0.472289  0.472289  0.0277113  1050.06  0.472259  0.0277413  0.0277413  0.472259  1050.06  0.472259  0.0277411  0.0277411  0.472259  1050.06  0.472259  0.0277409  0.0277409  0.472259  1050.06  0.472264  0.0277357  0.0277357  0.472264  1072.7  0.254248  0.245752  0.245752  0.254248  1072.71  0.254258  0.245742  0.245742  0.254258  1086.6  0.0277896  0.47221  0.47221  0.0277896  1086.6  0.0277898  0.47221  0.47221  0.0277898  1086.6  0.0277898  0.47221  0.47221  0.0277898  1088.72  0.0276439  0.472356  0.472356  0.0276439  1088.72  0.0276441  0.472356  0.472356  0.0276441  1088.72  0.0276441  0.472356  0.472356  0.0276441  1101.17  0.472277  0.0277227  0.0277227  0.472277  1101.17  0.472277  0.0277227  0.0277227  0.472277  1101.17  0.472277  0.0277227  0.0277227  0.472277  1101.17  0.472282  0.0277177  0.0277177  0.472282  1124.63  0.248665  0.251335  0.251335  0.248665  1124.65  0.248692  0.251308  0.251308  0.248692  1127.46  0.243609  0.256391  0.256391  0.243609  1127.49  0.243617  0.256383  0.256383  0.243617  1160.05  0.239135  0.260865  0.260865  0.239135  1160.2  0.239357  0.260643  0.260643  0.239357  1167.01  0.2528  0.2472  0.2472  0.2528  1167.01  0.2528  0.2472  0.2472  0.2528  1167.01  0.252801  0.247199  0.247199  0.252801  1177.87  0.260241  0.239759  0.239759  0.260241  1178.38  0.261168  0.238832  0.238832  0.261168  1189.88  0.0277156  0.472284  0.472284  0.0277156  1189.88  0.0277164  0.472284  0.472284  0.0277164  1189.88  0.0277179  0.472282  0.472282  0.0277179  1189.88  0.0277155  0.472284  0.472284  0.0277155  1189.88  0.0277172  0.472283  0.472283  0.0277172  1189.88  0.0277176  0.472282  0.472282  0.0277176  1220.08  0.260792  0.239208  0.239208  0.260792  1220.08  0.260792  0.239208  0.239208  0.260792  1235.64  0.23856  0.26144  0.26144  0.23856  1235.66  0.238568  0.261432  0.261432  0.238568  1265.55  0.252434  0.247566  0.247566  0.252434  1265.64  0.25278  0.24722  0.24722  0.25278  1265.86  0.252881  0.247119  0.247119  0.252881  1265.91  0.253203  0.246797  0.246797  0.253203  1285.7  0.247927  0.252073  0.252073  0.247927  1285.78  0.248109  0.251891  0.251891  0.248109  1285.8  0.248191  0.251809  0.251809  0.248191  1286.44  0.247899  0.252101  0.252101  0.247899  1291.02  0.0278261  0.472174  0.472174  0.0278261  1291.02  0.027831  0.472169  0.472169  0.027831  1291.02  0.0277868  0.472213  0.472213  0.0277868  1293.12  0.0276421  0.472358  0.472358  0.0276421  1293.13  0.0276611  0.472339  0.472339  0.0276611  1293.13  0.0276626  0.472337  0.472337  0.0276626  1305.52  0.472205  0.0277952  0.0277952  0.472205  1305.52  0.472206  0.0277941  0.0277941  0.472206  1305.58  0.472239  0.0277605  0.0277605  0.472239  1305.58  0.472239  0.0277605  0.0277605  0.472239  1305.58  0.47224  0.0277604  0.0277604  0.47224  1305.65  0.472351  0.0276494  0.0276494  0.472351  1305.65  0.472352  0.0276477  0.0276477  0.472352  1319.03  0.244149  0.255851  0.255851  0.244149  1319.25  0.244389  0.255611  0.255611  0.244389  1330.27  0.247469  0.252531  0.252531  0.247469  1330.31  0.24719  0.25281  0.25281  0.24719  1330.6  0.247968  0.252032  0.252032  0.247968  1330.71  0.246953  0.253047  0.253047  0.246953  1373.9  0.251096  0.248904  0.248904  0.251096  1373.95  0.25127  0.24873  0.24873  0.25127  1376.43  0.258297  0.241703  0.241703  0.258297  1376.56  0.258129  0.241871  0.241871  0.258129  1394.24  0.027719  0.472281  0.472281  0.027719  1394.25  0.02773  0.47227  0.47227  0.02773  1394.25  0.0277301  0.47227  0.47227  0.0277301  1394.29  0.0277123  0.472288  0.472288  0.0277123  1394.29  0.0277123  0.472288  0.472288  0.0277123  1394.3  0.0277202  0.47228  0.47228  0.0277202  1394.3  0.0277202  0.47228  0.47228  0.0277202  1394.3  0.0277202  0.47228  0.47228  0.0277202  1394.3  0.0277201  0.47228  0.47228  0.0277201  1407.79  0.472278  0.0277215  0.0277215  0.472278  1407.79  0.47228  0.0277201  0.0277201  0.47228  1407.79  0.47228  0.0277201  0.0277201  0.47228  1407.79  0.472283  0.0277165  0.0277165  0.472283  1445.39  0.0277138  0.472286  0.472286  0.0277138  1445.39  0.0277222  0.472278  0.472278  0.0277222  1445.39  0.0277222  0.472278  0.472278  0.0277222  1445.43  0.0277084  0.472292  0.472292  0.0277084  1445.43  0.0277166  0.472283  0.472283  0.0277166  1445.43  0.0277166  0.472283  0.472283  0.0277166  1458.89  0.472283  0.0277168  0.0277168  0.472283  1458.89  0.472284  0.0277159  0.0277159  0.472284  1472.95  0.252649  0.247351  0.247351  0.252649  1473.35  0.253386  0.246614  0.246614  0.253386  1473.35  0.253387  0.246613  0.246613  0.253387  1509.99  0.4722  0.0277995  0.0277995  0.4722  1509.99  0.472211  0.0277892  0.0277892  0.472211  1509.99  0.472211  0.0277892  0.0277892  0.472211  1510  0.472284  0.0277157  0.0277157  0.472284  1521.02  0.252092  0.247908  0.247908  0.252092  1521.33  0.2526  0.2474  0.2474  0.2526  1521.34  0.25261  0.24739  0.24739  0.25261  1526.78  0.260852  0.239148  0.239148  0.260852  1527.2  0.260667  0.239333  0.239333  0.260667  1541.45  0.248121  0.251879  0.251879  0.248121  1541.52  0.248304  0.251696  0.251696  0.248304  1541.52  0.248312  0.251688  0.251688  0.248312  1542.88  0.238492  0.261508  0.261508  0.238492  1544.6  0.237561  0.262439  0.262439  0.237561  1598.71  0.0277131  0.472287  0.472287  0.0277131  1598.71  0.0277119  0.472288  0.472288  0.0277119  1598.71  0.027713  0.472287  0.472287  0.027713  1598.72  0.0277436  0.472256  0.472256  0.0277436  1598.72  0.0277436  0.472256  0.472256  0.0277436  1598.72  0.0277436  0.472256  0.472256  0.0277436  1612.2  0.472263  0.0277366  0.0277366  0.472263  1612.2  0.472267  0.0277326  0.0277326  0.472267  1612.2  0.472268  0.0277324  0.0277324  0.472268  1637.92  0.246961  0.253039  0.253039  0.246961  1638.2  0.245612  0.254388  0.254388  0.245612  1639.3  0.246299  0.253701  0.253701  0.246299  1639.49  0.245738  0.254262  0.254262  0.245738  1649.77  0.0277429  0.472257  0.472257  0.0277429  1649.77  0.0277508  0.472249  0.472249  0.0277508  1663.31  0.472279  0.0277207  0.0277207  0.472279  1663.31  0.47228  0.0277195  0.0277195  0.47228  1663.31  0.472281  0.0277192  0.0277192  0.472281  1676.42  0.245078  0.254922  0.254922  0.245078  1686.4  0.254534  0.245466  0.245466  0.254534  1687.07  0.254483  0.245517  0.245517  0.254483  1700.92  0.0277442  0.472256  0.472256  0.0277442  1700.92  0.0277481  0.472252  0.472252  0.0277481  1700.96  0.027738  0.472262  0.472262  0.027738  1700.96  0.0277386  0.472261  0.472261  0.0277386  1730.57  0.25152  0.24848  0.24848  0.25152  1733.08  0.258624  0.241376  0.241376  0.258624  1739.6  0.248315  0.251685  0.251685  0.248315  1740.41  0.248456  0.251544  0.251544  0.248456  1742.5  0.241545  0.258455  0.258455  0.241545  1743.63  0.241132  0.258868  0.258868  0.241132  1779.68  0.253156  0.246844  0.246844  0.253156  1779.69  0.253184  0.246816  0.246816  0.253184  1779.93  0.253663  0.246337  0.246337  0.253663  1802.06  0.0278186  0.472181  0.472181  0.0278186  1802.06  0.0278198  0.47218  0.47218  0.0278198  1804.18  0.0276746  0.472325  0.472325  0.0276746  1804.18  0.0276747  0.472325  0.472325  0.0276747  1816.62  0.472283  0.0277169  0.0277169  0.472283  1841.89  0.246926  0.253074  0.253074  0.246926  1844.22  0.245354  0.254646  0.254646  0.245354  1844.22  0.245364  0.254636  0.254636  0.245364  1854.23  0.0277138  0.472286  0.472286  0.0277138  1854.28  0.0286192  0.471381  0.471381  0.0286192  1854.3  0.0291256  0.470874  0.470874  0.0291256  1854.3  0.0291263  0.470874  0.470874  0.0291263  1867.72  0.472242  0.0277579  0.0277579  0.472242  1867.73  0.472284  0.0277158  0.0277158  0.472284  1874.66  0.239869  0.260131  0.260131  0.239869  1884.77  0.252403  0.247597  0.247597  0.252403  1891.98  0.262156  0.237844  0.237844  0.262156  1893.53  0.246931  0.253069  0.253069  0.246931  1894.86  0.24535  0.25465  0.25465  0.24535  1894.86  0.245331  0.254669  0.254669  0.245331  1905.34  0.0277187  0.472281  0.472281  0.0277187  1905.39  0.0287175  0.471282  0.471282  0.0287175  1905.4  0.0289831  0.471017  0.471017  0.0289831  1905.4  0.0289834  0.471017  0.471017  0.0289834  1918.83  0.472264  0.0277363  0.0277363  0.472264  1918.83  0.472262  0.0277381  0.0277381  0.472262  1918.83  0.472263  0.0277366  0.0277366  0.472263  1986.25  0.25304  0.24696  0.24696  0.25304  2020.98  0.472208  0.027792  0.027792  0.472208  2021.04  0.472279  0.0277206  0.0277206  0.472279  2021.1  0.472355  0.0276453  0.0276453  0.472355  2044.19  0.254564  0.245436  0.245436  0.254564  2097.42  0.247173  0.252827  0.252827  0.247173  2100.38  0.240811  0.259189  0.259189  0.240811  2108.68  0.0277873  0.472213  0.472213  0.0277873  2108.74  0.029013  0.470987  0.470987  0.029013  2109.73  0.0278726  0.472127  0.472127  0.0278726  2109.73  0.0278502  0.47215  0.47215  0.0278502  2109.73  0.0278406  0.472159  0.472159  0.0278406  2110.78  0.0276424  0.472358  0.472358  0.0276424  2110.85  0.0283924  0.471608  0.471608  0.0283924  2123.24  0.472277  0.0277225  0.0277225  0.472277  2133.75  0.251668  0.248332  0.248332  0.251668  2147.84  0.246901  0.253099  0.253099  0.246901  2149.89  0.246057  0.253943  0.253943  0.246057  2154.47  0.248174  0.251826  0.251826  0.248174  2191.77  0.253098  0.246902  0.246902  0.253098  2211.95  0.0278427  0.472157  0.472157  0.0278427  2211.95  0.0277128  0.472287  0.472287  0.0277128  2211.95  0.0277128  0.472287  0.472287  0.0277128  2211.96  0.0277196  0.47228  0.47228  0.0277196  2242.58  0.259272  0.240728  0.240728  0.259272  2251.59  0.247272  0.252728  0.252728  0.247272  2259.2  0.237219  0.262781  0.262781  0.237219  2263.01  0.0277194  0.472281  0.472281  0.0277194  2263.08  0.028467  0.471533  0.471533  0.028467  2276.56  0.472264  0.027736  0.027736  0.472264  2283.35  0.239869  0.260131  0.260131  0.239869  2300.55  0.262684  0.237316  0.237316  0.262684  2314.15  0.0277142  0.472286  0.472286  0.0277142  2314.16  0.0278349  0.472165  0.472165  0.0278349  2314.19  0.0277088  0.472291  0.472291  0.0277088  2314.2  0.0277684  0.472232  0.472232  0.0277684  2327.66  0.472267  0.0277335  0.0277335  0.472267  2353.89  0.246831  0.253169  0.253169  0.246831  2394.75  0.253064  0.246936  0.246936  0.253064  2416.37  0.0277555  0.472244  0.472244  0.0277555  2416.37  0.0277136  0.472286  0.472286  0.0277136  2416.37  0.0277136  0.472286  0.472286  0.0277136  2429.81  0.472207  0.0277929  0.0277929  0.472207  2429.93  0.472355  0.0276454  0.0276454  0.472355  2467.47  0.0277135  0.472286  0.472286  0.0277135  2467.47  0.0277132  0.472287  0.472287  0.0277132  2467.47  0.0277566  0.472243  0.472243  0.0277566  2495.42  0.248643  0.251357  0.251357  0.248643  2506.53  0.246827  0.253173  0.253173  0.246827  2532.08  0.472278  0.0277225  0.0277225  0.472278  2548.54  0.254524  0.245476  0.245476  0.254524  2557.99  0.246658  0.253342  0.253342  0.246658  2599.55  0.253281  0.246719  0.246719  0.253281  2620.69  0.0281706  0.471829  0.471829  0.0281706  2634.29  0.472283  0.0277172  0.0277172  0.472283  2651.5  0.25916  0.24084  0.24084  0.25916  2667.92  0.226611  0.273389  0.273389  0.226611  2671.96  0.0281817  0.471818  0.471818  0.0281817  2672.1  0.0384228  0.461577  0.461577  0.0384228  2685.39  0.472236  0.0277645  0.0277645  0.472236  2701.69  0.253652  0.246348  0.246348  0.253652  2722.99  0.0277127  0.472287  0.472287  0.0277127  2722.99  0.0277144  0.472286  0.472286  0.0277144  2722.99  0.0277183  0.472282  0.472282  0.0277183  2736.49  0.472265  0.0277354  0.0277354  0.472265  2762.8  0.246902  0.253098  0.253098  0.246902  2824.13  0.0278107  0.472189  0.472189  0.0278107  2825.21  0.0277693  0.472231  0.472231  0.0277693  2826.2  0.0280351  0.471965  0.471965  0.0280351  2838.7  0.472279  0.0277214  0.0277214  0.472279  2863.36  0.250842  0.249158  0.249158  0.250842  2916.54  0.244072  0.255928  0.255928  0.244072  2927.49  0.029176  0.470824  0.470824  0.029176  2955.25  0.248629  0.251371  0.251371  0.248629  2966.93  0.246661  0.253339  0.253339  0.246661  3008.36  0.25454  0.24546  0.24546  0.25454  3069.34  0.246335  0.253665  0.253665  0.246335  3080.72  0.0277205  0.472279  0.472279  0.0277205  3094.22  0.472281  0.0277188  0.0277188  0.472281  3131.83  0.0277453  0.472255  0.472255  0.0277453  3145.32  0.472231  0.0277686  0.0277686  0.472231  3161.44  0.25363  0.24637  0.24637  0.25363  3211.46  0.250454  0.249546  0.249546  0.250454  3232.96  0.0278057  0.472194  0.472194  0.0278057  3235.06  0.0277475  0.472252  0.472252  0.0277475  3298.64  0.472261  0.0277394  0.0277394  0.472261  3314.97  0.254202  0.245798  0.245798  0.254202  3323.27  0.251148  0.248852  0.248852  0.251148  3336.22  0.0279306  0.472069  0.472069  0.0279306  3349.74  0.472274  0.0277263  0.0277263  0.472274  3376.62  0.245377  0.254623  0.254623  0.245377  3438.42  0.0277461  0.472254  0.472254  0.0277461  3451.95  0.472261  0.0277387  0.0277387  0.472261  3489.55  0.0278052  0.472195  0.472195  0.0278052  3529.25  0.245085  0.254915  0.254915  0.245085  3540.73  0.0290246  0.470975  0.470975  0.0290246  3579.51  0.249448  0.250552  0.250552  0.249448  3642.84  0.0278624  0.472138  0.472138  0.0278624  3682.93  0.245649  0.254351  0.254351  0.245649  3722.43  0.25043  0.24957  0.24957  0.25043  3825.92  0.254169  0.245831  0.245831  0.254169  3860.78  0.472252  0.0277475  0.0277475  0.472252  3898.35  0.0277623  0.472238  0.472238  0.0277623  3949.49  0.0279262  0.472074  0.472074  0.0279262  3962.99  0.472128  0.0278724  0.0278724  0.472128  4030.03  0.252526  0.247474  0.247474  0.252526  4090.54  0.249499  0.250501  0.250501  0.249499  4102.79  0.0277615  0.472238  0.472238  0.0277615  4153.88  0.0278998  0.4721  0.4721  0.0278998  4167.41  0.472125  0.0278753  0.0278753  0.472125  4193.97  0.245779  0.254221  0.254221  0.245779  4256.11  0.0277431  0.472257  0.472257  0.0277431  4397.82  0.247417  0.252583  0.252583  0.247417  4592.11  0.252462  0.247538  0.247538  0.252462  4664.93  0.0277749  0.472225  0.472225  0.0277749  4729.55  0.472258  0.027742  0.027742  0.472258  4767.15  0.0277581  0.472242  0.472242  0.0277581  4959.94  0.247458  0.252542  0.252542  0.247458  4971.56  0.0277137  0.472286  0.472286  0.0277137  5533.7  0.0277137  0.472286  0.472286  0.0277137  
4  0.0193029  -0.0334336   -384.371  0.237307  0.262693  0.262693  0.237307  -367.493  0.235798  0.264202  0.264202  0.235798  -346.879  0.243106  0.256894  0.256894  0.243106  -339.856  0.256919  0.243081  0.243081  0.256919  -313.957  0.24404  0.25596  0.25596  0.24404  -309.331  0.251304  0.248696  0.248696  0.251304  -287.224  0.264571  0.235429  0.235429  0.264571  -278.783  0.245476  0.254524  0.254524  0.245476  -276.071  0.249634  0.250366  0.250366  0.249634  -238.904  0.340338  0.159662  0.159662  0.340338  -238.887  0.39074  0.10926  0.10926  0.39074  -227.868  0.244026  0.255974  0.255974  0.244026  -227.83  0.244371  0.255629  0.255629  0.244371  -221.857  0.472267  0.0277326  0.0277326  0.472267  -204.845  0.463885  0.0361148  0.0361148  0.463885  -204.843  0.464523  0.0354768  0.0354768  0.464523  -204.254  0.268369  0.231631  0.231631  0.268369  -204.23  0.267944  0.232056  0.232056  0.267944  -176.574  0.245425  0.254575  0.254575  0.245425  -175.041  0.247593  0.252407  0.252407  0.247593  -170.746  0.471901  0.0280993  0.0280993  0.471901  -170.739  0.471456  0.0285436  0.0285436  0.471456  -153.717  0.472239  0.0277615  0.0277615  0.472239  -137.811  0.256246  0.243754  0.243754  0.256246  -137.666  0.256993  0.243007  0.243007  0.256993  -136.689  0.47225  0.0277499  0.0277499  0.47225  -136.689  0.472252  0.0277484  0.0277484  0.472252  -109.606  0.243222  0.256778  0.256778  0.243222  -108.385  0.24361  0.25639  0.25639  0.24361  -104.264  0.255478  0.244522  0.244522  0.255478  -102.604  0.471802  0.0281985  0.0281985  0.471802  -85.706  0.25886  0.24114  0.24114  0.25886  -85.5844  0.471852  0.0281483  0.0281483  0.471852  -85.5839  0.471842  0.0281583  0.0281583  0.471842  -85.463  0.259747  0.240253  0.240253  0.259747  -68.5477  0.47223  0.0277696  0.0277696  0.47223  -68.5476  0.47223  0.0277701  0.0277701  0.47223  -39.7778  0.245449  0.254551  0.254551  0.245449  -39.7778  0.245449  0.254551  0.254551  0.245449  -34.4801  0.472278  0.0277223  0.0277223  0.472278  -34.4797  0.472275  0.0277248  0.0277248  0.472275  -19.5573  0.254388  0.245612  0.245612  0.254388  -14.852  0.26287  0.23713  0.23713  0.26287  -1.95957  0.260831  0.239169  0.239169  0.260831  -1.95802  0.260829  0.239171  0.239171  0.260829  -0.374329  0.467219  0.0327807  0.0327807  0.467219  -0.37419  0.467202  0.0327976  0.0327976  0.467202  2.05841  0.264285  0.235715  0.235715  0.264285  22.396  0.257216  0.242784  0.242784  0.257216  30.7904  0.246551  0.253449  0.253449  0.246551  31.4557  0.254282  0.245718  0.245718  0.254282  31.5278  0.2531  0.2469  0.2469  0.2531  33.6534  0.472206  0.027794  0.027794  0.472206  33.6584  0.472275  0.0277247  0.0277247  0.472275  33.6594  0.472246  0.0277536  0.0277536  0.472246  44.0531  0.242842  0.257158  0.257158  0.242842  44.1859  0.243051  0.256949  0.256949  0.243051  50.6954  0.472246  0.027754  0.027754  0.472246  50.6954  0.472244  0.0277563  0.0277563  0.472244  56.3779  0.256677  0.243323  0.243323  0.256677  60.2247  0.249232  0.250768  0.250768  0.249232  66.7283  0.258013  0.241987  0.241987  0.258013  67.886  0.258554  0.241446  0.241446  0.258554  84.53  0.235984  0.264016  0.264016  0.235984  92.1144  0.254013  0.245987  0.245987  0.254013  93.5349  0.250739  0.249261  0.249261  0.250739  101.797  0.472271  0.0277293  0.0277293  0.472271  101.797  0.47227  0.0277299  0.0277299  0.47227  118.826  0.472193  0.0278069  0.0278069  0.472193  130.245  0.245542  0.254458  0.254458  0.245542  130.34  0.245267  0.254733  0.254733  0.245267  132.492  0.241021  0.258979  0.258979  0.241021  133.175  0.255673  0.244327  0.244327  0.255673  133.176  0.255644  0.244356  0.244356  0.255644  135.885  0.470093  0.0299071  0.0299071  0.470093  135.885  0.470101  0.0298988  0.0298988  0.470101  142.088  0.256724  0.243276  0.243276  0.256724  142.199  0.256131  0.243869  0.243869  0.256131  167.249  0.241741  0.258259  0.258259  0.241741  167.26  0.249889  0.250111  0.250111  0.249889  167.585  0.245859  0.254141  0.254141  0.245859  168.554  0.255651  0.244349  0.244349  0.255651  169.953  0.470605  0.0293947  0.0293947  0.470605  169.954  0.470347  0.0296535  0.0296535  0.470347  183.986  0.253608  0.246392  0.246392  0.253608  186.964  0.472046  0.0279541  0.0279541  0.472046  186.964  0.472042  0.027958  0.027958  0.472042  194.435  0.255808  0.244192  0.244192  0.255808  194.597  0.254142  0.245858  0.245858  0.254142  201.248  0.253583  0.246417  0.246417  0.253583  201.248  0.253588  0.246412  0.246412  0.253588  204.011  0.472168  0.0278319  0.0278319  0.472168  204.017  0.472099  0.0279005  0.0279005  0.472099  231.234  0.243091  0.256909  0.256909  0.243091  231.236  0.243067  0.256933  0.256933  0.243067  233.771  0.243633  0.256367  0.256367  0.243633  233.93  0.242839  0.257161  0.257161  0.242839  254.021  0.257568  0.242432  0.242432  0.257568  254.022  0.257572  0.242428  0.242428  0.257572  261.257  0.256954  0.243046  0.243046  0.256954  261.267  0.258593  0.241407  0.241407  0.258593  267.473  0.244352  0.255648  0.255648  0.244352  272.144  0.472262  0.0277378  0.0277378  0.472262  272.144  0.47226  0.0277403  0.0277403  0.47226  272.151  0.472139  0.0278612  0.0278612  0.472139  272.151  0.472137  0.0278635  0.0278635  0.472137  286.463  0.24198  0.25802  0.25802  0.24198  286.557  0.241153  0.258847  0.258847  0.241153  302.547  0.253958  0.246042  0.246042  0.253958  306.216  0.472274  0.0277263  0.0277263  0.472274  306.25  0.470234  0.0297656  0.0297656  0.470234  319.543  0.253144  0.246856  0.246856  0.253144  319.545  0.253147  0.246853  0.246853  0.253147  323.248  0.472269  0.0277309  0.0277309  0.472269  331.116  0.255215  0.244785  0.244785  0.255215  331.116  0.255215  0.244785  0.244785  0.255215  334.371  0.245211  0.254789  0.254789  0.245211  334.374  0.245202  0.254798  0.254798  0.245202  340.281  0.472252  0.0277484  0.0277484  0.472252  340.281  0.472252  0.0277484  0.0277484  0.472252  352.819  0.246128  0.253872  0.253872  0.246128  369.638  0.251311  0.248689  0.248689  0.251311  369.639  0.251312  0.248688  0.248688  0.251312  370.676  0.248731  0.251269  0.251269  0.248731  370.676  0.248726  0.251274  0.251274  0.248726  371.481  0.250948  0.249052  0.249052  0.250948  371.483  0.250964  0.249036  0.249036  0.250964  374.36  0.471977  0.0280225  0.0280225  0.471977  374.36  0.471977  0.0280226  0.0280226  0.471977  391.391  0.472232  0.0277678  0.0277678  0.472232  391.391  0.472232  0.0277678  0.0277678  0.472232  403.33  0.252487  0.247513  0.247513  0.252487  404.241  0.254228  0.245772  0.245772  0.254228  404.723  0.246825  0.253175  0.253175  0.246825  404.723  0.246824  0.253176  0.253176  0.246824  415.731  0.257347  0.242653  0.242653  0.257347  415.812  0.256688  0.243312  0.243312  0.256688  441.208  0.242889  0.257111  0.257111  0.242889  441.213  0.244561  0.255439  0.255439  0.244561  442.49  0.472274  0.0277261  0.0277261  0.472274  452.247  0.243073  0.256927  0.256927  0.243073  452.254  0.243074  0.256926  0.256926  0.243074  459.524  0.472263  0.027737  0.027737  0.472263  459.524  0.472263  0.027737  0.027737  0.472263  473.144  0.255488  0.244512  0.244512  0.255488  473.145  0.255491  0.244509  0.244509  0.255491  476.563  0.472277  0.0277227  0.0277227  0.472277  476.563  0.472277  0.0277228  0.0277228  0.472277  497.603  0.246224  0.253776  0.253776  0.246224  497.604  0.246225  0.253775  0.253775  0.246225  503.09  0.258266  0.241734  0.241734  0.258266  503.139  0.258161  0.241839  0.241839  0.258161  510.629  0.472272  0.0277283  0.0277283  0.472272  510.629  0.472272  0.0277283  0.0277283  0.472272  510.637  0.472137  0.0278628  0.0278628  0.472137  510.637  0.472137  0.0278628  0.0278628  0.472137  515.158  0.252685  0.247315  0.247315  0.252685  515.16  0.252689  0.247311  0.247311  0.252689  532.417  0.245188  0.254812  0.254812  0.245188  532.598  0.243793  0.256207  0.256207  0.243793  544.679  0.471684  0.0283162  0.0283162  0.471684  544.7  0.472283  0.0277173  0.0277173  0.472283  549.194  0.253844  0.246156  0.246156  0.253844  550.389  0.251916  0.248084  0.248084  0.251916  552.377  0.246006  0.253994  0.253994  0.246006  565.078  0.0277409  0.472259  0.472259  0.0277409  569.823  0.244435  0.255565  0.255565  0.244435  569.824  0.244426  0.255574  0.255574  0.244426  571.773  0.245492  0.254508  0.254508  0.245492  572.107  0.245905  0.254095  0.254095  0.245905  579.442  0.253672  0.246328  0.246328  0.253672  582.213  0.0277252  0.472275  0.472275  0.0277252  595.805  0.472277  0.0277228  0.0277228  0.472277  595.805  0.472277  0.0277227  0.0277227  0.472277  596.534  0.253874  0.246126  0.246126  0.253874  596.534  0.253887  0.246113  0.246113  0.253887  596.719  0.254156  0.245844  0.245844  0.254156  596.834  0.254417  0.245583  0.245583  0.254417  599.264  0.0277238  0.472276  0.472276  0.0277238  599.468  0.0276969  0.472303  0.472303  0.0276969  612.842  0.472263  0.0277369  0.0277369  0.472263  612.842  0.472263  0.0277366  0.0277366  0.472263  613.558  0.256647  0.243353  0.243353  0.256647  613.904  0.257073  0.242927  0.242927  0.257073  625.478  0.242374  0.257626  0.257626  0.242374  625.603  0.242761  0.257239  0.257239  0.242761  633.317  0.0277268  0.472273  0.472273  0.0277268  633.406  0.0277135  0.472286  0.472286  0.0277135  646.906  0.472268  0.0277324  0.0277324  0.472268  646.906  0.47227  0.0277303  0.0277303  0.47227  648.159  0.255108  0.244892  0.244892  0.255108  648.613  0.256047  0.243953  0.243953  0.256047  650.558  0.0276981  0.472302  0.472302  0.0276981  667.428  0.0277216  0.472278  0.472278  0.0277216  667.458  0.027716  0.472284  0.472284  0.027716  673.306  0.246424  0.253576  0.253576  0.246424  680.977  0.472283  0.0277169  0.0277169  0.472283  680.991  0.471826  0.0281741  0.0281741  0.471826  690.752  0.245437  0.254563  0.254563  0.245437  690.763  0.245455  0.254545  0.254545  0.245455  700.059  0.252283  0.247717  0.247717  0.252283  700.182  0.252539  0.247461  0.247461  0.252539  701.597  0.0277073  0.472293  0.472293  0.0277073  708.397  0.244625  0.255375  0.255375  0.244625  708.583  0.24477  0.25523  0.25523  0.24477  715.044  0.472273  0.0277272  0.0277272  0.472273  715.048  0.472282  0.0277183  0.0277183  0.472282  715.048  0.472283  0.027717  0.027717  0.472283  718.512  0.0277239  0.472276  0.472276  0.0277239  718.512  0.0277239  0.472276  0.472276  0.0277239  730.902  0.253332  0.246668  0.246668  0.253332  731.981  0.25754  0.24246  0.24246  0.25754  732.075  0.472144  0.0278562  0.0278562  0.472144  732.075  0.472144  0.0278559  0.0278559  0.472144  732.415  0.258145  0.241855  0.241855  0.258145  735.683  0.0277128  0.472287  0.472287  0.0277128  735.683  0.0277128  0.472287  0.472287  0.0277128  741.866  0.246254  0.253746  0.253746  0.246254  741.873  0.246263  0.253737  0.253737  0.246263  745.271  0.245609  0.254391  0.254391  0.245609  745.361  0.24595  0.25405  0.25405  0.24595  747.883  0.258614  0.241386  0.241386  0.258614  748.353  0.2664  0.2336  0.2336  0.2664  749.147  0.467102  0.0328978  0.0328978  0.467102  749.163  0.460258  0.0397415  0.0397415  0.460258  769.639  0.0277256  0.472274  0.472274  0.0277256  769.644  0.027725  0.472275  0.472275  0.027725  776.777  0.244878  0.255122  0.255122  0.244878  777.546  0.244983  0.255017  0.255017  0.244983  783.185  0.472265  0.0277353  0.0277353  0.472265  783.186  0.472267  0.0277325  0.0277325  0.472267  799.002  0.254251  0.245749  0.245749  0.254251  799.475  0.25516  0.24484  0.24484  0.25516  803.787  0.0277101  0.47229  0.47229  0.0277101  803.787  0.0277101  0.47229  0.47229  0.0277101  815.714  0.253227  0.246773  0.246773  0.253227  816.201  0.254162  0.245838  0.245838  0.254162  820.682  0.256214  0.243786  0.243786  0.256214  820.706  0.256269  0.243731  0.243731  0.256269  836.994  0.246125  0.253875  0.253875  0.246125  837.168  0.246067  0.253933  0.253933  0.246067  837.75  0.0280628  0.471937  0.471937  0.0280628  837.751  0.0281278  0.471872  0.471872  0.0281278  837.844  0.0277117  0.472288  0.472288  0.0277117  848.938  0.253935  0.246065  0.246065  0.253935  850.934  0.254076  0.245924  0.245924  0.254076  851.325  0.47226  0.0277399  0.0277399  0.47226  851.326  0.472233  0.0277672  0.0277672  0.472233  854.772  0.238959  0.261041  0.261041  0.238959  854.875  0.231254  0.268746  0.268746  0.231254  854.92  0.028549  0.471451  0.471451  0.028549  854.921  0.0364322  0.463568  0.463568  0.0364322  868.356  0.472267  0.0277332  0.0277332  0.472267  868.361  0.472264  0.027736  0.027736  0.472264  868.362  0.472264  0.0277359  0.0277359  0.472264  878.556  0.246762  0.253238  0.253238  0.246762  878.562  0.24677  0.25323  0.25323  0.24677  883.674  0.256455  0.243545  0.243545  0.256455  884.148  0.257287  0.242713  0.242713  0.257287  885.4  0.472022  0.0279775  0.0279775  0.472022  885.401  0.472026  0.0279739  0.0279739  0.472026  905.916  0.0277211  0.472279  0.472279  0.0277211  905.916  0.0277211  0.472279  0.472279  0.0277211  913.944  0.24592  0.25408  0.25408  0.24592  914.725  0.246104  0.253896  0.253896  0.246104  917.522  0.254756  0.245244  0.245244  0.254756  917.971  0.255639  0.244361  0.244361  0.255639  923.012  0.0277133  0.472287  0.472287  0.0277133  936.497  0.472274  0.0277263  0.0277263  0.472274  936.498  0.472276  0.0277242  0.0277242  0.472276  940.059  0.0278468  0.472153  0.472153  0.0278468  940.06  0.0277465  0.472253  0.472253  0.0277465  941.564  0.254517  0.245483  0.245483  0.254517  943.044  0.254939  0.245061  0.245061  0.254939  946.763  0.246718  0.253282  0.253282  0.246718  953.526  0.472178  0.0278215  0.0278215  0.472178  953.527  0.472181  0.0278187  0.0278187  0.472181  964.47  0.246598  0.253402  0.253402  0.246598  964.476  0.246626  0.253374  0.253374  0.246626  974.116  0.0277148  0.472285  0.472285  0.0277148  974.116  0.0277142  0.472286  0.472286  0.0277142  977.29  0.245995  0.254005  0.254005  0.245995  981.811  0.243577  0.256423  0.256423  0.243577  985.622  0.252927  0.247073  0.247073  0.252927  986.425  0.254398  0.245602  0.245602  0.254398  987.601  0.472282  0.0277178  0.0277178  0.472282  987.602  0.472283  0.0277174  0.0277174  0.472283  987.603  0.472266  0.0277339  0.0277339  0.472266  987.603  0.472284  0.0277163  0.0277163  0.472284  991.06  0.0277256  0.472274  0.472274  0.0277256  991.06  0.0277256  0.472274  0.472274  0.0277256  1000.92  0.239731  0.260269  0.260269  0.239731  1008.23  0.0277069  0.472293  0.472293  0.0277069  1008.23  0.0277076  0.472292  0.472292  0.0277076  1010.16  0.252276  0.247724  0.247724  0.252276  1015.22  0.244766  0.255234  0.255234  0.244766  1018.59  0.254453  0.245547  0.245547  0.254453  1020.8  0.264932  0.235068  0.235068  0.264932  1021.69  0.471336  0.0286639  0.0286639  0.471336  1021.72  0.461032  0.0389684  0.0389684  0.461032  1029.21  0.254229  0.245771  0.245771  0.254229  1055.74  0.472269  0.0277306  0.0277306  0.472269  1055.74  0.472271  0.0277285  0.0277285  0.472271  1071.12  0.253796  0.246204  0.246204  0.253796  1076.26  0.027722  0.472278  0.472278  0.027722  1076.26  0.027722  0.472278  0.472278  0.027722  1076.32  0.0283082  0.471692  0.471692  0.0283082  1076.32  0.0278197  0.47218  0.47218  0.0278197  1077  0.256631  0.243369  0.243369  0.256631  1077.94  0.257376  0.242624  0.242624  0.257376  1086.82  0.254499  0.245501  0.245501  0.254499  1088.01  0.253778  0.246222  0.246222  0.253778  1088.07  0.253908  0.246092  0.246092  0.253908  1099.68  0.242367  0.257633  0.257633  0.242367  1100.44  0.246932  0.253068  0.253068  0.246932  1102.53  0.240531  0.259469  0.259469  0.240531  1110.4  0.027712  0.472288  0.472288  0.027712  1110.41  0.0277163  0.472284  0.472284  0.0277163  1117.14  0.246263  0.253737  0.253737  0.246263  1118.72  0.247423  0.252577  0.252577  0.247423  1123.88  0.472058  0.0279421  0.0279421  0.472058  1123.89  0.471858  0.0281418  0.0281418  0.471858  1127.42  0.0277158  0.472284  0.472284  0.0277158  1138.51  0.254029  0.245971  0.245971  0.254029  1140.91  0.47228  0.0277197  0.0277197  0.47228  1144.46  0.0277149  0.472285  0.472285  0.0277149  1144.46  0.0277154  0.472285  0.472285  0.0277154  1154.49  0.242983  0.257017  0.257017  0.242983  1157.95  0.472281  0.0277191  0.0277191  0.472281  1157.95  0.472275  0.0277251  0.0277251  0.472275  1157.95  0.472266  0.0277338  0.0277338  0.472266  1164.87  0.248707  0.251293  0.251293  0.248707  1168.3  0.245481  0.254519  0.254519  0.245481  1178.44  0.0277267  0.472273  0.472273  0.0277267  1178.44  0.027727  0.472273  0.472273  0.027727  1185.44  0.246221  0.253779  0.253779  0.246221  1186.13  0.247052  0.252948  0.252948  0.247052  1194.8  0.254021  0.245979  0.245979  0.254021  1195.61  0.0277105  0.472289  0.472289  0.0277105  1195.61  0.0277127  0.472287  0.472287  0.0277127  1209.04  0.471713  0.0282867  0.0282867  0.471713  1212.63  0.250608  0.249392  0.249392  0.250608  1214.58  0.254987  0.245013  0.245013  0.254987  1215.54  0.25506  0.24494  0.24494  0.25506  1219.32  0.24617  0.25383  0.25383  0.24617  1226.09  0.472278  0.0277223  0.0277223  0.472278  1226.09  0.472274  0.0277256  0.0277256  0.472274  1226.09  0.472273  0.0277269  0.0277269  0.472273  1231.07  0.251  0.249  0.249  0.251  1246.66  0.0277354  0.472265  0.472265  0.0277354  1252.26  0.24498  0.25502  0.25502  0.24498  1254.27  0.24379  0.25621  0.25621  0.24379  1258.23  0.253291  0.246709  0.246709  0.253291  1263.7  0.0277223  0.472278  0.472278  0.0277223  1263.7  0.0277164  0.472284  0.472284  0.0277164  1275.03  0.253561  0.246439  0.246439  0.253561  1277.19  0.47228  0.0277196  0.0277196  0.47228  1280.68  0.0277237  0.472276  0.472276  0.0277237  1280.68  0.0277243  0.472276  0.472276  0.0277243  1285.53  0.246268  0.253732  0.253732  0.246268  1287.68  0.244958  0.255042  0.255042  0.244958  1294.23  0.472283  0.0277171  0.0277171  0.472283  1314.8  0.0277186  0.472281  0.472281  0.0277186  1314.8  0.0277183  0.472282  0.472282  0.0277183  1314.82  0.0277208  0.472279  0.472279  0.0277208  1314.82  0.0277146  0.472285  0.472285  0.0277146  1323.2  0.241887  0.258113  0.258113  0.241887  1324.48  0.253478  0.246522  0.246522  0.253478  1328.31  0.471643  0.0283567  0.0283567  0.471643  1348.06  0.257862  0.242138  0.242138  0.257862  1348.88  0.0277178  0.472282  0.472282  0.0277178  1348.88  0.0277177  0.472282  0.472282  0.0277177  1355.18  0.245568  0.254432  0.254432  0.245568  1357.43  0.247333  0.252667  0.252667  0.247333  1360.5  0.254089  0.245911  0.245911  0.254089  1362.36  0.472269  0.0277309  0.0277309  0.472269  1367.49  0.257543  0.242457  0.242457  0.257543  1385.99  0.248088  0.251912  0.251912  0.248088  1389.69  0.246646  0.253354  0.253354  0.246646  1392.03  0.24071  0.25929  0.25929  0.24071  1393.62  0.253579  0.246421  0.246421  0.253579  1396.44  0.471918  0.0280818  0.0280818  0.471918  1399.89  0.0277352  0.472265  0.472265  0.0277352  1399.89  0.0277339  0.472266  0.472266  0.0277339  1413.47  0.472275  0.027725  0.027725  0.472275  1415.05  0.252539  0.247461  0.247461  0.252539  1417.06  0.0277124  0.472288  0.472288  0.0277124  1417.06  0.0277122  0.472288  0.472288  0.0277122  1441.74  0.246594  0.253406  0.253406  0.246594  1450.87  0.249074  0.250926  0.250926  0.249074  1451.08  0.0277299  0.47227  0.47227  0.0277299  1451.08  0.0277235  0.472276  0.472276  0.0277235  1457.81  0.245633  0.254367  0.254367  0.245633  1457.87  0.246436  0.253564  0.253564  0.246436  1464.57  0.47228  0.0277204  0.0277204  0.47228  1464.57  0.472281  0.0277187  0.0277187  0.472281  1469.97  0.25142  0.24858  0.24858  0.25142  1481.61  0.472244  0.0277563  0.0277563  0.472244  1485.15  0.0277239  0.472276  0.472276  0.0277239  1485.16  0.0277231  0.472277  0.472277  0.0277231  1498.64  0.472175  0.0278247  0.0278247  0.472175  1508.81  0.246275  0.253725  0.253725  0.246275  1519.16  0.0277198  0.47228  0.47228  0.0277198  1519.17  0.0277345  0.472266  0.472266  0.0277345  1519.22  0.0277305  0.472269  0.472269  0.0277305  1521.4  0.255149  0.244851  0.244851  0.255149  1532.71  0.472279  0.0277207  0.0277207  0.472279  1536.26  0.0277301  0.47227  0.47227  0.0277301  1536.26  0.0277303  0.47227  0.47227  0.0277303  1549.74  0.472276  0.0277238  0.0277238  0.472276  1553.3  0.0277098  0.47229  0.47229  0.0277098  1553.31  0.0277219  0.472278  0.472278  0.0277219  1559.43  0.244862  0.255138  0.255138  0.244862  1564.33  0.253246  0.246754  0.246754  0.253246  1587.36  0.0277118  0.472288  0.472288  0.0277118  1587.37  0.0277294  0.472271  0.472271  0.0277294  1592.83  0.246104  0.253896  0.253896  0.246104  1597  0.253116  0.246884  0.246884  0.253116  1600.85  0.472283  0.0277167  0.0277167  0.472283  1629.93  0.246964  0.253036  0.253036  0.246964  1645.34  0.246547  0.253453  0.253453  0.246547  1655.41  0.0277239  0.472276  0.472276  0.0277239  1655.42  0.0277389  0.472261  0.472261  0.0277389  1672.54  0.0277765  0.472224  0.472224  0.0277765  1672.57  0.0277056  0.472294  0.472294  0.0277056  1672.59  0.0277401  0.47226  0.47226  0.0277401  1680.43  0.241846  0.258154  0.258154  0.241846  1689.56  0.0277128  0.472287  0.472287  0.0277128  1689.58  0.0277817  0.472218  0.472218  0.0277817  1690.57  0.257598  0.242402  0.242402  0.257598  1694.57  0.24747  0.25253  0.25253  0.24747  1703.06  0.472121  0.0278794  0.0278794  0.472121  1704.98  0.258219  0.241781  0.241781  0.258219  1714.25  0.241884  0.258116  0.258116  0.241884  1729.77  0.245756  0.254244  0.254244  0.245756  1737.13  0.472277  0.0277227  0.0277227  0.472277  1740.67  0.0277123  0.472288  0.472288  0.0277123  1740.68  0.0277703  0.47223  0.47223  0.0277703  1757.7  0.0277131  0.472287  0.472287  0.0277131  1757.72  0.0278819  0.472118  0.472118  0.0278819  1762.34  0.246416  0.253584  0.253584  0.246416  1770.84  0.253306  0.246694  0.246694  0.253306  1780.19  0.246573  0.253427  0.253427  0.246573  1791.71  0.02772  0.47228  0.47228  0.02772  1791.73  0.0277537  0.472246  0.472246  0.0277537  1791.77  0.027717  0.472283  0.472283  0.027717  1791.79  0.0278608  0.472139  0.472139  0.0278608  1822.3  0.47218  0.0278201  0.0278201  0.47218  1822.68  0.254033  0.245967  0.245967  0.254033  1825.85  0.0277099  0.47229  0.47229  0.0277099  1825.88  0.0277678  0.472232  0.472232  0.0277678  1831.26  0.245792  0.254208  0.254208  0.245792  1839.34  0.472256  0.0277441  0.0277441  0.472256  1859.91  0.027712  0.472288  0.472288  0.027712  1859.94  0.0278805  0.47212  0.47212  0.0278805  1869.05  0.244386  0.255614  0.255614  0.244386  1907.47  0.472274  0.0277255  0.0277255  0.472274  1907.73  0.255415  0.244585  0.244585  0.255415  1927.84  0.0416592  0.458341  0.458341  0.0416592  1928.04  0.0277123  0.472288  0.472288  0.0277123  1931.17  0.233465  0.266535  0.266535  0.233465  1941.83  0.255294  0.244706  0.244706  0.255294  1944.99  0.027724  0.472276  0.472276  0.027724  1958.58  0.472283  0.0277168  0.0277168  0.472283  1960.2  0.252758  0.247242  0.247242  0.252758  1961.98  0.033738  0.466262  0.466262  0.033738  1962.11  0.0277208  0.472279  0.472279  0.0277208  1962.16  0.0277057  0.472294  0.472294  0.0277057  1967.17  0.240571  0.259429  0.259429  0.240571  2009.68  0.472283  0.0277173  0.0277173  0.472283  2013.22  0.0277136  0.472286  0.472286  0.0277136  2030.25  0.0277132  0.472287  0.472287  0.0277132  2030.25  0.0277144  0.472286  0.472286  0.0277144  2030.25  0.0277124  0.472288  0.472288  0.0277124  2043.5  0.34475  0.15525  0.15525  0.34475  2043.93  0.381289  0.118711  0.118711  0.381289  2048.35  0.257598  0.242402  0.242402  0.257598  2072.16  0.241795  0.258205  0.258205  0.241795  2077.82  0.472284  0.0277161  0.0277161  0.472284  2081.35  0.0277128  0.472287  0.472287  0.0277128  2094.85  0.472277  0.0277226  0.0277226  0.472277  2098.37  0.0278775  0.472123  0.472123  0.0278775  2132.38  0.0318644  0.468136  0.468136  0.0318644  2138.23  0.24249  0.25751  0.25751  0.24249  2166.51  0.0280454  0.471955  0.471955  0.0280454  2180.03  0.472282  0.0277175  0.0277175  0.472282  2189.25  0.245644  0.254356  0.254356  0.245644  2200.6  0.0277139  0.472286  0.472286  0.0277139  2217.63  0.0277135  0.472287  0.472287  0.0277135  2236.98  0.255064  0.244936  0.244936  0.255064  2268.62  0.0301634  0.469837  0.469837  0.0301634  2268.73  0.0277892  0.472211  0.472211  0.0277892  2275.33  0.242393  0.257607  0.257607  0.242393  2277.72  0.244414  0.255586  0.255586  0.244414  2285.82  0.0280931  0.471907  0.471907  0.0280931  2302.8  0.0277125  0.472287  0.472287  0.0277125  2309.07  0.244414  0.255586  0.255586  0.244414  2316.3  0.25539  0.24461  0.24461  0.25539  2325.16  0.246542  0.253458  0.253458  0.246542  2336.88  0.0277219  0.472278  0.472278  0.0277219  2350.34  0.255272  0.244728  0.244728  0.255272  2353.91  0.027797  0.472203  0.472203  0.027797  2405.02  0.0277236  0.472276  0.472276  0.0277236  2410.64  0.246115  0.253885  0.253885  0.246115  2418.51  0.472282  0.0277178  0.0277178  0.472282  2451.96  0.277105  0.222895  0.222895  0.277105  2452.66  0.448957  0.0510432  0.0510432  0.448957  2486.65  0.472283  0.0277168  0.0277168  0.472283  2497.93  0.242429  0.257571  0.257571  0.242429  2507.22  0.0277154  0.472285  0.472285  0.0277154  2522.91  0.25974  0.24026  0.24026  0.25974  2541.29  0.0277183  0.472282  0.472282  0.0277183  2588.51  0.254642  0.245358  0.245358  0.254642  2588.86  0.472281  0.0277186  0.0277186  0.472281  2626.32  0.0284462  0.471554  0.471554  0.0284462  2639.96  0.472281  0.0277195  0.0277195  0.472281  2643.17  0.055112  0.444888  0.444888  0.055112  2646.33  0.227313  0.272687  0.272687  0.227313  2657  0.472284  0.0277164  0.0277164  0.472284  2684.17  0.244491  0.255509  0.255509  0.244491  2711.67  0.0279483  0.472052  0.472052  0.0279483  2717.93  0.244596  0.255404  0.255404  0.244596  2725.14  0.472282  0.0277179  0.0277179  0.472282  2762.76  0.0277812  0.472219  0.472219  0.0277812  2813.77  0.0278885  0.472112  0.472112  0.0278885  2819.54  0.24617  0.25383  0.25383  0.24617  2847.88  0.0284274  0.471573  0.471573  0.0284274  2866.24  0.256569  0.243431  0.243431  0.256569  2881.91  0.0299614  0.470039  0.470039  0.0299614  2890.65  0.238122  0.261878  0.261878  0.238122  2899.03  0.027731  0.472269  0.472269  0.027731  2956.19  0.245139  0.254861  0.254861  0.245139  2957.79  0.24243  0.25757  0.25757  0.24243  2982.7  0.259712  0.240288  0.240288  0.259712  2984.22  0.0279082  0.472092  0.472092  0.0279082  3048.3  0.254611  0.245389  0.245389  0.254611  3099.9  0.472279  0.0277212  0.0277212  0.472279  3116.93  0.472281  0.0277185  0.0277185  0.472281  3185.07  0.472278  0.0277224  0.0277224  0.472278  3198.76  0.247196  0.252804  0.252804  0.247196  3222.61  0.0277908  0.472209  0.472209  0.0277908  3236.82  0.257456  0.242544  0.242544  0.257456  3256.75  0.02781  0.47219  0.47219  0.02781  3290.81  0.0278097  0.47219  0.47219  0.0278097  3326.15  0.257358  0.242642  0.242642  0.257358  3338.38  0.472279  0.0277206  0.0277206  0.472279  3350.55  0.240255  0.259745  0.259745  0.240255  3372.45  0.472277  0.0277225  0.0277225  0.472277  3392.99  0.0281071  0.471893  0.471893  0.0281071  3416.22  0.244971  0.255029  0.255029  0.244971  3444.04  0.0277856  0.472214  0.472214  0.0277856  3461.21  0.0277456  0.472254  0.472254  0.0277456  3529.29  0.0277762  0.472224  0.472224  0.0277762  3566.81  0.252665  0.247335  0.247335  0.252665  3604.74  0.242522  0.257478  0.257478  0.242522  3709.74  0.247177  0.252823  0.252823  0.247177  3747.77  0.25742  0.24258  0.24258  0.25742  3849.42  0.472267  0.0277331  0.0277331  0.472267  3883.49  0.472208  0.0277917  0.0277917  0.472208  3903.98  0.0278544  0.472146  0.472146  0.0278544  3921.15  0.027738  0.472262  0.472262  0.027738  3984.6  0.252529  0.247471  0.247471  0.252529  3989.24  0.0277453  0.472255  0.472255  0.0277453  4077.84  0.252731  0.247269  0.247269  0.252731  4115.8  0.242565  0.257435  0.257435  0.242565  4121.98  0.472199  0.0278014  0.0278014  0.472199  4142.51  0.0278176  0.472182  0.472182  0.0278176  4176.64  0.0277443  0.472256  0.472256  0.0277443  4352.39  0.247422  0.252578  0.252578  0.247422  4546.68  0.252479  0.247521  0.247521  0.252479  4653.55  0.0277799  0.47222  0.47222  0.0277799  4684.11  0.470109  0.0298909  0.0298909  0.470109  4687.7  0.0298828  0.470117  0.470117  0.0298828  4914.51  0.247461  0.252539  0.252539  0.247461  4926.13  0.0277137  0.472286  0.472286  0.0277137  5488.27  0.0277137  0.472286  0.472286  0.0277137  
